  STEP   TOTAL TIME             LOCATION OF OBSERVATION POINTS (K,I,J)
                      7  99  35    13  99  35    19  99  35    25  99  35    35  99  35     7  69  35    13  69  35    19  69  35    25  69  35    35  69  35     7  41  33    13  41  33    19  41  33    25  41  33    35  41  33     7  78  36
                     13  78  36    19  78  36    25  78  36    35  78  36     7  60  37    13  60  37    19  60  37    25  60  37    35  60  37    35  60  42
     1   1.00135E-02    0.0000        0.0000        0.0000        0.0000        0.0000       2.64472E-14   1.91963E-15   2.86821E-13   1.65524E-13   1.95139E-11   8.20184E-09   8.32120E-12   3.61123E-10   4.53535E-10   1.18641E-08    0.0000    
                        0.0000        0.0000        0.0000        0.0000        0.0000        0.0000        0.0000        0.0000        0.0000        0.0000    
     2   2.00270E-02   6.90453E-19   1.64082E-19   1.92494E-18   2.30046E-16   6.43011E-17   2.16230E-12   1.86662E-13   2.08403E-11   2.06357E-11   2.78464E-09   2.40590E-06   4.07480E-10   2.14540E-08   3.15785E-08   1.62830E-06   4.23572E-21
                       4.97520E-18   1.63083E-14   8.96236E-14   3.57376E-12   1.54762E-23   2.86863E-23   9.19813E-16   1.30916E-16   1.98726E-13   2.49637E-29
     3   3.00405E-02   1.85854E-17   1.51860E-17   1.84948E-16   1.68318E-14   2.64804E-15   1.12980E-10   9.71722E-12   5.25636E-10   1.00267E-09   1.58358E-07   1.03427E-04   7.94716E-09   8.03758E-07   4.45626E-07   5.29417E-05   3.23343E-19
                       4.88950E-16   8.71638E-13   4.39923E-12   1.86905E-10   1.88543E-21   3.26629E-21   1.14382E-13   6.08301E-14   1.42235E-11   5.91159E-25
     4   4.00539E-02   2.90872E-16   6.03030E-16   2.22993E-15   2.90224E-13   2.07453E-14   3.58689E-09   1.93617E-10   7.00334E-09   1.83451E-08   5.51410E-06   2.13197E-04   2.55654E-07   1.24644E-05   1.76596E-06   6.49215E-04   1.11261E-17
                       1.79186E-14   2.37874E-11   1.10194E-10   4.87885E-09   9.47699E-20   2.03466E-19   3.84004E-12   3.50511E-12   4.86229E-10   7.95764E-23
     5   4.16667E-02   3.59383E-16   9.28362E-16   2.78512E-15   3.43093E-13   2.53502E-14   9.08715E-09   3.33221E-10   7.39525E-09   3.01804E-08   5.62172E-06   2.29875E-04   2.69802E-07   1.35287E-05   1.99690E-06   6.70491E-04   3.06814E-17
                       5.10999E-14   6.36624E-11   2.91984E-10   1.27342E-08   2.92407E-19   6.62863E-19   1.09435E-11   1.16878E-11   1.43730E-09   3.35530E-22
     1   5.16802E-02   3.55080E-15   1.39189E-14   2.66518E-14   2.90703E-12   1.53591E-13   4.86476E-08   1.62334E-09   1.98247E-08   2.25171E-07   1.16398E-05   8.12822E-04   4.88907E-07   7.71848E-05   5.15792E-05   9.99327E-04   4.35350E-16
                       6.56531E-13   9.49761E-10   3.80454E-09   1.31407E-07   5.53797E-18   1.65344E-17   1.70326E-10   1.65114E-10   2.20537E-08   1.66470E-20
     2   6.16937E-02   1.63717E-14   8.43392E-14   1.56558E-13   1.15092E-11   1.73763E-12   1.66143E-07   2.51632E-08   1.01991E-06   2.88699E-06   4.99728E-05   1.11203E-03   2.88604E-06   1.44882E-04   1.69483E-04   1.66803E-02   3.59282E-15
                       4.86691E-12   8.73179E-09   2.40260E-08   5.81319E-07   5.94087E-17   2.35310E-16   1.55027E-09   8.98767E-10   1.53314E-07   5.10375E-19
     3   7.17072E-02   6.46174E-14   3.20046E-13   5.85991E-13   5.90233E-11   9.39365E-12   4.41559E-07   3.88008E-07   1.61274E-06   3.39542E-06   1.47938E-04   1.39458E-03   1.37712E-05   2.52740E-03   3.52649E-03   2.68875E-02   2.01804E-14
                       3.45689E-11   3.71035E-08   4.86712E-08   1.05963E-06   4.10729E-16   2.04224E-15   5.14641E-09   3.51105E-09   3.48680E-07   1.07030E-17
     4   8.17207E-02   2.25512E-13   9.08705E-13   1.63146E-12   2.20960E-10   1.19241E-10   7.58409E-07   7.49815E-07   2.84112E-06   3.68344E-06   1.53224E-04   1.72370E-03   2.59868E-05   2.64909E-03   1.05584E-02   4.27464E-02   8.52195E-14
                       2.07121E-10   1.09980E-07   8.24598E-08   1.72624E-06   2.38062E-15   1.12035E-14   1.12973E-08   1.78031E-08   1.29640E-06   1.60324E-16
     5   9.17341E-02   5.87531E-13   2.18986E-12   9.27072E-12   5.58671E-10   4.97243E-10   1.96494E-06   3.65518E-06   3.67724E-05   6.68994E-06   2.64939E-04   6.78623E-03   2.73594E-05   2.98010E-03   1.08274E-02   5.66904E-02   2.38315E-13
                       6.37565E-10   3.71366E-07   1.34490E-07   3.08650E-06   1.17384E-14   4.72485E-14   3.83843E-08   5.38690E-08   1.91440E-06   1.72049E-15
     6   0.10175       1.30923E-12   4.63348E-12   2.90395E-11   1.14402E-09   1.12548E-09   2.04325E-06   3.73752E-06   3.85115E-05   1.02075E-05   4.17368E-04   7.21759E-03   2.91652E-05   1.15598E-02   1.97092E-02   8.35587E-02   6.60113E-13
                       1.44127E-09   6.86523E-07   3.12973E-07   4.76907E-06   3.98080E-14   2.12637E-13   1.10631E-07   9.55256E-08   3.40870E-06   1.31837E-14
     7   0.11176       2.99919E-12   8.99442E-12   6.63383E-11   2.07492E-09   2.36823E-09   2.21025E-06   3.84935E-06   4.09026E-05   1.54112E-05   5.08386E-03   7.97131E-03   3.16353E-05   1.64471E-02   2.00377E-02   0.14041       1.67419E-12
                       2.72345E-09   1.80695E-06   4.27224E-07   7.86680E-06   1.06556E-13   1.26358E-12   2.47078E-07   1.43651E-07   4.51785E-06   7.29837E-14
     8   0.12177       1.73921E-11   1.64163E-11   1.30783E-10   3.46142E-09   4.27328E-09   2.48319E-06   3.96431E-06   4.72098E-05   2.23050E-05   9.40671E-03   1.03838E-02   3.48054E-05   1.77326E-02   2.73347E-02   0.18829       7.77756E-12
                       4.48114E-09   3.05401E-06   8.93127E-07   1.28103E-05   2.47587E-13   5.79683E-12   6.49192E-07   2.07204E-07   3.27348E-05   3.08830E-13
     9   0.12500       2.83268E-11   1.96823E-11   1.54697E-10   3.94573E-09   4.95001E-09   2.57962E-06   4.00168E-06   5.04920E-05   3.88650E-05   9.74875E-03   1.14830E-02   3.59007E-05   1.78188E-02   3.53162E-02   0.19220       2.28185E-11
                       5.19925E-09   3.51489E-06   1.60671E-06   1.45911E-05   3.28064E-13   8.34166E-12   6.64799E-07   2.33027E-07   5.92638E-05   5.45197E-13
     1   0.13501       1.18713E-10   3.36522E-11   2.85664E-10   6.20620E-09   8.10883E-09   2.96938E-06   1.48350E-05   6.97451E-05   1.64250E-04   1.67816E-02   2.21088E-02   4.03515E-05   2.63711E-02   4.99341E-02   0.28094       9.69338E-11
                       7.67843E-09   3.61756E-06   2.15958E-06   1.86941E-04   6.43498E-13   1.74952E-11   7.82291E-07   3.45167E-07   6.63847E-05   1.74562E-12
     2   0.14503       2.69982E-10   5.61536E-11   5.03963E-10   1.07085E-08   1.26735E-08   3.07165E-05   2.45904E-05   9.00824E-05   1.68575E-02   2.16898E-02   2.27987E-02   2.51910E-04   3.81869E-02   5.06328E-02   0.32551       2.43409E-10
                       1.08575E-08   3.80311E-06   2.70268E-06   8.31365E-04   1.15812E-12   3.01909E-11   3.35347E-06   8.88865E-07   1.23830E-04   4.83473E-12
     3   0.15504       4.81845E-10   9.23322E-11   8.40996E-10   1.75248E-08   1.90472E-08   7.61014E-05   2.47215E-05   2.62539E-04   1.69709E-02   2.75609E-02   3.67793E-02   4.98504E-04   5.61465E-02   7.13917E-02   0.38124       3.94405E-10
                       1.47694E-08   9.70456E-06   3.27903E-06   1.07421E-03   1.97220E-12   4.66250E-11   4.93168E-06   1.45444E-06   1.43755E-04   1.21156E-11
     4   0.16505       7.54236E-10   1.48065E-10   1.33576E-09   2.88207E-08   3.00142E-08   9.20672E-05   2.49863E-05   3.00108E-04   3.89688E-02   4.08724E-02   3.93507E-02   5.65714E-04   7.48802E-02   7.25752E-02   0.44344       5.91694E-10
                       1.94374E-08   9.69171E-06   7.31985E-06   1.15437E-03   3.41382E-12   6.70922E-11   9.04105E-06   2.20632E-06   1.65558E-04   2.94264E-11
     5   0.17507       1.08718E-09   2.36486E-10   2.02990E-09   4.66206E-08   4.52449E-08   1.43462E-04   4.69213E-05   3.39678E-04   6.46965E-02   5.31744E-02   7.21532E-02   6.35531E-04   7.58050E-02   9.86643E-02   0.50509       1.51737E-09
                       2.48615E-08   1.05276E-05   8.81762E-06   1.31969E-03   6.14863E-12   9.19815E-11   1.17650E-05   3.59939E-06   2.45928E-04   7.17926E-11
     6   0.18508       1.48094E-09   3.74710E-10   3.00953E-09   7.43535E-08   7.25661E-08   1.62048E-04   6.58818E-05   1.86473E-03   6.45395E-02   7.06245E-02   8.06190E-02   1.27899E-03   0.11412       0.10818       0.57162       2.48430E-09
                       3.04114E-08   1.15028E-05   4.62171E-05   1.42405E-03   1.11506E-11   1.22468E-10   1.84232E-05   5.27232E-06   3.98090E-04   1.67668E-10
     7   0.19509       1.93654E-09   1.54084E-09   4.36456E-09   1.16617E-07   1.10413E-07   1.82054E-04   6.65060E-05   3.26822E-03   6.88790E-02   9.03252E-02   0.11759       2.06240E-03   0.12148       0.13776       0.64315       4.20683E-09
                       3.61154E-08   1.26548E-05   4.98172E-05   2.65360E-03   1.97048E-11   1.64912E-10   2.17469E-05   7.27409E-06   5.56528E-04   3.58337E-10
     8   0.20511       2.45551E-09   4.46990E-09   6.20061E-09   1.76701E-07   1.53468E-07   2.03479E-04   6.71655E-05   3.30934E-03   7.60583E-02   9.97944E-02   0.12746       2.21504E-03   0.15432       0.14727       0.72615       5.95456E-09
                       4.23262E-08   1.42008E-05   1.27766E-04   3.75124E-03   3.34128E-11   2.19782E-10   3.53846E-05   7.60270E-06   7.08946E-04   6.97269E-10
     9   0.20833       2.63230E-09   5.38291E-09   6.84062E-09   1.96655E-07   1.68553E-07   2.10527E-04   6.73816E-05   3.52296E-03   7.59996E-02   0.10858       0.13064       2.27938E-03   0.15688       0.15035       0.75369       6.52721E-09
                       4.44674E-08   1.47267E-05   1.74474E-04   4.05231E-03   3.99281E-11   2.41348E-10   3.65419E-05   7.76341E-06   7.71591E-04   8.72761E-10
     1   0.21835       9.04211E-09   1.59849E-08   4.40858E-08   1.43610E-06   7.55834E-07   2.29461E-04   6.78919E-05   3.35585E-03   7.58978E-02   0.11086       0.13718       2.36499E-03   0.16292       0.15742       0.81043       6.59252E-09
                       4.46922E-08   1.59436E-05   1.71488E-04   4.41986E-03   4.13000E-11   2.50091E-10   3.11057E-05   7.97129E-06   5.90624E-04   8.83681E-10
     2   0.22837       1.55596E-08   2.65231E-08   1.00377E-07   3.60823E-06   1.80712E-06   2.48991E-04   6.84200E-05   2.02934E-03   6.84371E-02   0.10886       0.14373       2.45219E-03   0.13706       0.14326       0.84681       6.65815E-09
                       4.49387E-08   1.71026E-05   1.74606E-04   4.05736E-03   4.26895E-11   2.58912E-10   3.29201E-05   8.07265E-06   7.26308E-04   8.94543E-10
     3   0.23839       2.21912E-08   3.70770E-08   1.86402E-07   6.74058E-06   5.89432E-06   2.69123E-04   6.87523E-05   2.06959E-03   6.83511E-02   0.11425       0.11285       5.38341E-03   0.13822       0.14936       0.89518       6.72408E-09
                       4.51976E-08   1.83214E-05   1.76915E-04   4.15447E-03   4.40965E-11   2.67812E-10   3.44148E-05   8.18119E-06   6.43616E-04   9.05346E-10
     4   0.24841       2.89438E-08   4.82564E-08   3.35733E-07   8.85730E-06   1.06568E-05   2.89354E-04   6.90823E-05   6.27039E-04   6.82425E-02   0.11865       0.11505       5.46348E-03   0.13933       0.17090       0.93920       6.78968E-09
                       4.54690E-08   1.95997E-05   1.79121E-04   3.65702E-03   4.55214E-11   2.76793E-10   3.62542E-05   8.29724E-06   6.78396E-04   9.16085E-10
     5   0.25000       3.00450E-08   5.01096E-08   3.64647E-07   9.18006E-06   1.14306E-05   2.92567E-04   6.91350E-05   6.33628E-04   6.82254E-02   0.11551       0.11540       5.47591E-03   0.13951       0.15574       0.91488       6.80006E-09
                       4.55136E-08   1.98041E-05   1.79476E-04   3.66689E-03   4.57467E-11   2.78213E-10   3.65465E-05   8.31582E-06   6.83935E-04   9.17778E-10
     1   0.87193       3.60919E-07   5.39863E-07   1.80117E-05   2.39439E-04   2.31491E-04   2.13448E-03   1.06790E-04   1.48526E-02   8.85495E-02   0.78235       0.23011       7.72529E-03   0.36933       0.93354        11.301       4.76111E-08
                       2.13746E-07   2.08238E-04   8.51605E-04   2.53506E-02   9.51468E-10   1.97244E-09   2.16765E-04   5.61456E-05   1.36394E-02   1.94243E-08
     2    1.4939       3.29813E-06   2.64127E-06   2.79038E-04   1.54966E-03   3.35046E-03   3.49013E-03   4.32822E-04   2.35199E-02   0.12324        3.1483       0.25523       1.12627E-02   0.64930        2.0026        13.793       1.68791E-07
                       1.45930E-06   1.08855E-03   2.98297E-03   0.47282       1.53961E-08   1.35219E-08   1.28916E-03   4.30439E-04   7.72140E-02   2.48183E-07
     3    2.1158       1.01962E-05   8.36343E-06   1.53063E-03   8.89914E-03   1.65524E-02   7.43396E-03   7.05699E-04   4.20083E-02   0.28700        5.5246        1.0812       1.99272E-02    1.0249        2.6551        14.296       3.89665E-07
                       6.89090E-06   5.54544E-03   1.10422E-02   0.97707       1.59763E-07   1.01421E-07   1.39884E-02   1.69940E-03   0.38172       3.06319E-06
     4    2.7377       1.82628E-05   1.16373E-05   5.98920E-03   3.31078E-02   0.13452       9.81865E-03   1.78597E-03   9.84869E-02   0.71017        11.834        1.1627       4.96151E-02    5.3716        4.0301        14.805       9.70755E-07
                       3.10051E-05   1.22038E-02   3.59815E-02    2.9227       7.70785E-07   4.26760E-07   2.67362E-02   1.63536E-02    1.6540       3.58800E-05
     5    3.3596       4.95544E-05   2.70535E-05   1.92829E-02   0.11552       0.35819       2.45039E-02   2.06220E-03   0.25586        1.2639        12.279        1.2615       7.34780E-02    8.7965        6.9773        16.219       2.10045E-06
                       6.25136E-05   2.36417E-02   6.76901E-02    10.451       2.06665E-06   1.78977E-06   4.52534E-02   2.69551E-02    4.4395       1.34716E-04
     6    3.9816       1.05408E-04   3.95117E-05   6.91300E-02   0.37237        1.3038       3.37332E-02   3.22422E-03   0.70171        2.1778        14.720        1.2371       9.48575E-02    11.481        11.009        16.113       1.79741E-05
                       8.76042E-05   4.56999E-02   0.27603        12.592       4.32239E-06   4.55460E-06   0.19321       5.02607E-02    9.8118       1.08365E-03
     7    4.6035       1.33305E-04   7.14027E-05   0.17903       0.76962        3.0865       5.83403E-02   7.40845E-03    1.9343        2.6220        15.225        2.5485       0.17860        13.418        12.744        16.138       3.18756E-05
                       1.15821E-04   0.28468       0.64218        13.725       9.18502E-06   1.08039E-05   0.44180       0.11017        12.391       6.91900E-03
     8    5.2254       2.13141E-04   4.54736E-04   0.37694        1.9753        5.8969       6.13887E-02   1.01210E-02    2.8601        3.7170        15.525        4.5776       0.79495        13.264        12.660        15.352       5.45136E-05
                       1.92929E-04   0.45072        1.2277        15.377       1.21332E-05   1.38229E-05   0.93526       0.18810        13.399       3.80843E-02
     9    5.8473       3.03678E-04   1.11167E-03    1.1647        3.2928        9.8131       0.13072       1.77008E-02    3.2254        4.3635        15.360        5.8696        1.4852        13.759        13.923        14.756       7.58960E-05
                       1.12011E-03   0.59412        1.8019        15.821       1.43925E-05   2.20948E-05    1.3724       0.52131        14.975       0.10179    
    10    6.4693       4.43522E-04   2.49532E-03    2.1984        4.3299        12.105       0.14023       2.04578E-02    3.6276        8.4588        14.690        7.7402        2.3704        14.120        14.668        13.674       9.25283E-05
                       1.53692E-03    1.0845        2.1307        16.032       2.64769E-05   3.76792E-05    2.6756        1.2080        15.661       0.37194    
    11    7.0912       8.26773E-04   2.78999E-03    5.0859        10.254        13.310       0.18409       3.51406E-02    4.1298        11.108        13.060        9.0665        3.1165        14.360        14.742        9.3496       1.17705E-04
                       2.82921E-03    1.4081        7.4138        15.991       4.20840E-05   5.12807E-05    5.3988        2.7933        15.842        1.3906    
    12    7.7131       1.05324E-03   6.01956E-03    9.2603        12.007        14.443       0.24014       5.20876E-02    4.5362        11.372        12.502        8.7179        3.0624        14.797        14.648        8.1094       1.64160E-04
                       6.01315E-03    1.6095        11.229        15.654       8.20997E-05   7.82436E-05    7.5259        4.3805        15.677        2.9474    
    13    8.3350       1.62850E-03   7.87446E-03    12.280        13.116        15.084       0.26596       7.09398E-02    7.8581        10.704        11.083        9.3217        3.2178        15.085        14.429        5.6103       2.28111E-04
                       7.63543E-03    3.0463        12.488        15.150       1.01104E-04   1.75194E-04    9.0091        4.5836        15.412        5.2738    
    14    8.9570       2.68208E-03   9.62801E-03    12.341        13.808        14.986       0.31715       0.11243        10.009        11.109        7.2349        10.884        3.2615        15.342        13.015        1.6387       3.11926E-04
                       9.24767E-03    7.6418        13.478        13.432       1.76243E-04   1.89329E-04    9.8432        5.8900        14.046        8.1103    
    15    9.5789       4.58489E-03   1.10870E-02    13.296        14.206        15.150       0.69455       0.16430        9.5366        10.247        3.4191        10.643        3.3107        14.921        12.455        1.4621       3.25181E-04
                       1.09151E-02    11.132        13.727        11.518       5.30757E-04   7.00075E-04    11.553        8.1032        12.893        11.248    
    16    10.201       6.27105E-03   1.26435E-02    14.203        14.713        14.279        1.1283       0.24531        11.721        10.318        2.3673        10.631        3.4209        14.080        11.811       0.78782       3.53774E-04
                       1.77534E-02    12.549        14.115        9.1115       6.15253E-04   3.47073E-03    12.576        11.432        9.1537        12.443    
    17    10.823       8.98683E-03   1.59127E-02    14.675        15.080        12.805        1.4267       0.34625        12.637        9.2824        1.1304        10.986        4.2408        12.617        10.322       0.26840       5.07516E-04
                       2.00598E-02    12.237        15.051        4.3938       1.36369E-03   9.33918E-03    13.006        11.450        7.8797        14.413    
    18    11.445       1.19061E-02   1.81764E-02    14.848        14.960        11.286        1.9981       0.55586        13.577        8.5140       0.74397        10.514        5.3286        10.870        8.3492       0.17813       9.95719E-04
                       2.49445E-02    12.964        15.163        2.8329       1.79758E-03   1.10436E-02    13.636        11.889        3.9145        15.095    
    19    12.067       2.00825E-02   4.51812E-02    14.801        14.563        9.2586        2.8043       0.70899        12.973        5.1677       0.40820        13.926        6.6370        10.723        5.1762       7.05618E-02   1.36896E-03
                       3.91039E-02    13.764        15.403        1.7108       2.85883E-03   1.59070E-02    14.043        11.374        2.2732        15.233    
    20    12.689       3.96310E-02   0.12869        14.461        13.918        6.1635        2.9548       0.83352        12.794        4.1525       0.26393        13.595        7.7873        9.6233        3.5535       3.67784E-02   2.09724E-03
                       7.89204E-02    14.747        15.410        1.0558       3.52280E-03   1.76713E-02    14.183        11.264        1.7414        15.154    
    21    13.310       5.07721E-02   0.17699        13.475        12.364        4.6547        3.5414        1.0138        12.522        3.0610       0.20993        13.546        11.802        6.8304        3.3840       1.88788E-02   2.62318E-03
                       9.61098E-02    14.670        15.207       0.69303       4.03029E-03   1.83585E-02    14.315        10.562       0.93790        14.260    
    22    13.932       6.90246E-02   0.19952        12.301        11.222        2.9585        4.0119        1.3883        12.102        2.5351       0.10775        13.462        14.355        2.7688        2.7023       8.81101E-03   4.51319E-03
                       0.12414        14.745        14.886       0.49597       5.36810E-03   2.00223E-02    14.110        9.2868       0.54050        13.378    
    23    14.554       9.75608E-02   0.32758        11.680        10.398        1.6303        4.8113        1.6056        11.634        1.7703       9.31244E-02    12.654        14.000        2.3629        2.8080       4.33770E-03   5.89607E-03
                       0.16174        14.748        14.372       0.36065       6.02599E-03   2.14331E-02    13.934        9.5520       0.17839        11.962    
    24    15.176       0.12113       0.34189        10.944        8.4234        1.2839        4.2809        1.7457        10.125        1.3456       6.05544E-02    11.969        13.649        2.5022        3.0370       2.09753E-03   7.27659E-03
                       0.19927        15.019        12.563       0.31791       8.56779E-03   2.79533E-02    13.321        9.3838       0.12845        9.1210    
    25    15.798       0.13460       0.42206        8.9231        6.5677       0.80639        4.8460        1.8509        8.6667        1.3379       3.35615E-02    11.202        13.600        1.7450        2.5261       1.30915E-03   9.68483E-03
                       0.21807        14.752        11.125       0.22027       1.60098E-02   3.61642E-02    12.477        7.3422       7.07230E-02    7.5521    
    26    16.420       0.14236       0.44145        6.3223        5.5701       0.56494        5.1765        2.6745        7.7186        1.2870       3.01919E-02    11.449        13.374       0.55972        1.7785       6.56856E-04   1.10150E-02
                       0.24732        14.475        10.913       0.18067       2.80599E-02   6.52043E-02    11.365        5.5103       3.80168E-02    5.2100    
    27    17.042       0.16022       0.48887        4.7404        3.5890       0.47914        5.5881        2.9576        7.3161       0.81436       1.48853E-02    11.310        13.116       0.62482        1.7332       3.91308E-04   1.17983E-02
                       0.27821        14.168        10.843       0.12451       3.71655E-02   9.27778E-02    9.5863        3.9780       2.13064E-02    2.7020    
    28    17.664       0.20931       0.66052        3.0482        2.5992       0.35286        5.6975        3.5108        7.1940       0.43988       1.10892E-02    11.172        12.613       0.43363        1.7719       2.77096E-04   3.23728E-02
                       0.54754        13.511        8.8581       9.25279E-02   4.91814E-02   0.12812        7.6622        2.7807       1.27347E-02    2.2466    
    29    18.286       0.22988       0.68851        2.0081        2.1380       0.31759        5.3501        4.4236        5.5430       0.40492       7.49541E-03    8.0295        12.041       0.38053        1.6884       1.83547E-04   4.51387E-02
                       0.78753        12.739        5.6805       5.82099E-02   6.36556E-02   0.14663        5.2216        2.4757       1.07973E-02    1.2235    
    30    18.908       0.33845       0.77475        1.3815        1.7697       0.23126        5.2103        5.7107        3.6132       0.35883       5.11869E-03    6.9862        11.541       0.20094        1.4844       1.48669E-04   6.17461E-02
                        1.5607        9.6318        4.6366       4.18477E-02   8.03983E-02   0.20307        3.4670        1.6534       4.30990E-03   0.82496    
    31    19.530       0.52781        1.3238       0.93265        1.5437       0.20350        5.3793        7.3899        2.7092       0.33475       3.29892E-03    5.4670        11.230       0.13767       0.83143       1.25983E-04   6.88450E-02
                        1.9428        8.5320        4.3074       2.93948E-02   9.27270E-02   0.23246        3.0681        1.2728       3.12320E-03   0.42465    
    32    20.000       0.69615        1.6060       0.80084        1.2946       0.16115        5.9058        8.4001        1.8666       0.27686       2.34140E-03    3.0167        11.264       0.11212       0.58436       1.14722E-04   7.65733E-02
                        2.1939        7.9766        3.9596       2.32402E-02   0.11345       0.26771        2.1739        1.0050       2.13522E-03   0.36416    
     1    20.012       0.69662        1.6082       0.74056        1.2965       0.16337        5.9097        7.7111        1.8698       0.29383       2.66236E-03    4.2878        11.096       0.11819       0.60003       1.14980E-04   7.66849E-02
                        2.1935        7.9740        4.0015       2.31141E-02   0.11359       0.26251        2.1759       0.96256       2.16434E-03   0.36502    
     2    20.024       0.69710        1.6103       0.65901        1.2062       0.16563        5.5426        7.7099        1.8987       0.28967       2.86994E-03    4.5129        11.092       0.11822       0.64967       1.16210E-04   7.67965E-02
                        2.1931        7.9716        4.0018       2.34983E-02   0.11373       0.26301        2.1780        1.0214       2.31137E-03   0.36588    
     3    20.036       0.72051        1.6124       0.65930        1.2108       0.17280        4.8771        7.7088        1.9022       0.29158       3.00483E-03    4.5159        11.088       0.12524       0.69054       1.21095E-04   7.69081E-02
                        2.1927        7.9693        4.0022       2.13582E-02   0.11386       0.26350        2.4697        1.0240       2.41418E-03   0.37443    
     4    20.048       0.79169        1.7807       0.65959        1.2674       0.15799        4.8826        6.7344        1.9580       0.29568       3.10203E-03    4.6644        11.084       0.12257       0.69801       1.24023E-04   7.70197E-02
                        2.1923        7.9670        3.6448       2.13091E-02   0.11399       0.26397        2.4705        1.0403       2.82172E-03   0.37523    
     5    20.060       0.74430        1.7822       0.51661        1.2701       0.15250        4.4262        6.7353        1.9615       0.29760       3.19821E-03    4.6668        11.081       0.13025       0.70540       1.21140E-04   7.71313E-02
                        2.1919        7.6413        4.2937       2.17412E-02   0.11851       0.26445        2.4717        1.0429       3.06695E-03   0.37602    
     6    20.071       0.74472        1.7836       0.51744        1.4286       0.16371        4.4326        6.7362        2.0249       0.31340       3.46106E-03    5.4912        11.077       0.13635       0.66881       1.18768E-04   7.72427E-02
                        2.1915        7.6413        4.2938       2.21879E-02   0.11863       0.26493        2.4729        1.1762       3.09904E-03   0.38900    
     7    20.083       0.74515        1.7851       0.46468        1.3819       0.15419        4.2801        6.7370        2.0285       0.31528       4.18157E-03    6.4497        11.154       0.13633       0.67556       1.20554E-04   7.73541E-02
                        2.1912        7.6412        4.6677       2.29718E-02   0.11876       0.26540        2.4741        1.2665       3.13321E-03   0.38978    
     8    20.095       0.74554        1.9012       0.43456        1.2399       0.14220        4.2866        6.7378        2.0319       0.32900       4.22239E-03    6.9780        11.151       0.13632       0.76035       1.20919E-04   7.74648E-02
                        2.1907        7.6410        4.1826       2.33876E-02   0.11888       0.26588        2.4753        1.3322       3.53470E-03   0.39055    
     9    20.107       0.74592        1.9025       0.42051        1.2429       0.11287        4.0979        6.7386        2.0354       0.33038       4.26441E-03    6.9716        11.147       0.13817       0.76679       1.18750E-04   7.75754E-02
                        2.1903        7.6409        4.1833       2.38310E-02   0.11901       0.26634        2.4767        1.3332       3.57100E-03   0.39103    
    10    20.119       0.74631        1.6765       0.42180        1.0714       0.11706        4.1037        6.7394        2.8207       0.35774       4.14285E-03    6.9649        11.144       0.14612       0.78133       1.33090E-04   7.76852E-02
                        2.1899        7.6410        4.2475       2.48813E-02   0.11913       0.26679        2.6479        1.3340       3.65208E-03   0.39178    
    11    20.131       0.74669        1.6782       0.45442        1.0688       0.11710        4.1094        6.7401        2.8208       0.36697       4.19973E-03    6.9583        11.315       0.14609       0.79701       1.33841E-04   7.77954E-02
                        2.0933        7.6414        4.3361       2.59643E-02   0.11926       0.26109        2.6498        1.3350       3.68786E-03   0.39254    
    12    20.143       0.74708        1.6799       0.43349        1.0792       0.12175        4.0082        6.7407        2.6187       0.36858       4.25787E-03    6.9510        11.312       0.14609       0.80267       1.34983E-04   7.79074E-02
                        2.0930        7.6419        4.3380       2.64269E-02   0.11938       0.26149        2.8541        1.3360       3.72443E-03   0.39332    
    13    20.155       0.74745        1.6817       0.35946        1.0825       9.76182E-02    4.0139        6.2536        2.4681       0.37517       4.31421E-03    6.9435        11.309       0.14608       0.80811       1.40595E-04   7.80087E-02
                        2.0857        7.9662        4.2717       2.67253E-02   0.11949       0.26189        3.1159        1.3370       3.76236E-03   0.38753    
    14    20.167       0.74779        1.6167       0.30112       0.99247       0.10134        4.0192        6.2552        2.4700       0.37685       4.44891E-03    6.9366        11.306       0.15103       0.78004       1.43631E-04   7.81101E-02
                        2.0854        7.9658        4.2742       2.95426E-02   0.11961       0.26229        3.1166        1.3967       3.81001E-03   0.38835    
    15    20.179       0.74815        1.6183       0.28778       0.58800       0.27439        4.0246        6.2566        2.4718       0.38444       4.62611E-03    6.9295        11.304       0.15102       0.82210       1.53403E-04   7.82112E-02
                        2.0850        7.9658        4.2768       3.32380E-02   0.11625       0.24865        3.1174        1.3975       3.85895E-03   0.36778    
    16    20.190       0.78580        1.6200       0.27245       0.60716       0.27584        4.0299        6.2580        2.5680       0.38613       4.89351E-03    6.9219        11.392       0.15102       0.82717       1.81142E-04   7.83122E-02
                        2.0846        8.3893        4.2806       3.54965E-02   0.11880       0.24907        3.1182        1.3986       4.24479E-03   0.36861    
    17    20.202       0.78610        1.5498       0.27114        1.0991       0.27729        4.0351        6.2593        2.4996       0.38791       4.96118E-03    6.2200        11.390       0.15101       0.81617       1.90058E-04   7.84133E-02
                        2.0845        8.5699        4.2829       3.50738E-02   0.11891       0.24948        3.1100        1.4951       4.29989E-03   0.36943    
    18    20.208       0.81182        1.5506       0.27186        1.6415       0.27798        4.0376        6.2600        2.5003       0.40877       4.99328E-03    6.2179        11.388       0.15101       0.83053       1.95390E-04   7.84611E-02
                        2.0765        8.4367        4.3084       3.52631E-02   0.11896       0.24967        3.1106        1.4955       4.32616E-03   0.36981    
     1    20.220       0.78645        1.6243       0.27306        1.1006       0.27920        4.0443        6.2617        2.4278       0.39132       5.08764E-03    6.2129        11.385       0.15108       0.84129       2.29312E-04   7.86498E-02
                        2.0842        7.9621        4.2873       3.45248E-02   0.11917       0.25051        3.1217        1.4015       4.07543E-03   0.37184    
     2    20.232       0.78676        1.6259       0.27429       0.46264       0.28042        4.0510        6.2638        2.4811       0.38758       4.56090E-03    6.9020        11.282       0.15114       0.84889       3.14982E-04   7.88496E-02
                        2.0836        7.9618        4.2914       3.22586E-02   0.12255       0.26537        3.1231        1.3444       4.13117E-03   0.37394    
     3    20.244       0.78706        1.6275       0.29011       0.61994       0.28163        4.0579        6.2658        2.4840       0.38999       4.85140E-03    6.8941        11.277       0.14631       0.86106       5.26640E-04   7.90605E-02
                        2.0831        7.9609        4.2570       3.23376E-02   0.12279       0.26618        3.1237        1.3462       4.12166E-03   0.37580    
     4    20.250       0.78723        1.6283       0.29084       0.62453       0.11163        4.0617        6.7437        2.4855       0.38590       4.78893E-03    6.8895        11.275       0.14634       0.85265       7.46234E-04   7.91724E-02
                        2.0829        7.6379        4.2588       3.27039E-02   0.12292       0.27244        2.6634        1.3470       4.15470E-03   0.37681    
     1    20.872       0.84499        1.7227       0.17182       0.53795       0.47174        4.5434        7.6149        1.5518       0.32995       3.75237E-03    5.7005        10.942       0.10677       0.91764       4.21113E-02   8.86143E-02
                        2.2071        6.7925        4.0154       2.58252E-02   0.12844       0.30957        1.9705        1.0691       3.71133E-03   0.26951    
     2    21.494        1.1350        2.6141       0.13865        1.0601       0.29427        5.7024        8.6266        1.5082       0.37488       9.37259E-03    2.3567        10.923       9.02480E-02   0.74624       0.29651       9.88705E-02
                        2.5822        7.0309        3.1065       1.86008E-02   0.15992       0.35976        1.0866        1.0552       1.62153E-03   0.16338    
     3    22.116        1.3287        2.9520       8.78558E-02   0.86231       9.39290E-02    5.7274        9.3681        1.1945       0.35358       8.10309E-02    2.4033        10.961       6.26675E-02    1.0112        1.8775       0.19635    
                        2.6471        4.7764        1.9579       1.65119E-02   0.28444       0.45356       0.98769       0.99991       4.56695E-03   0.12271    
     4    22.250        1.3838        2.9609       8.84925E-02   0.78795       0.10292        5.7617        10.319        1.1802       0.32541       0.10647        2.4227        10.938       6.35017E-02   0.97939        1.9363       0.19710    
                        2.7634        4.2246        1.9215       2.15278E-02   0.28554       0.45855       0.99193        1.0021       5.63116E-03   0.10942    
     1    22.262        1.3837        2.8829       8.87022E-02   0.82053       0.10083        5.2465        10.308        1.1811       0.32649       0.10982        2.3869        10.926       6.40147E-02   0.91174        2.5330       0.19733    
                        2.7640        4.2255        2.0470       2.20993E-02   0.28586       0.46021       0.97097        1.0068       5.87072E-03   0.10673    
     2    22.274        1.3837        2.8857       8.89576E-02   0.86265       0.10191        5.5649        10.296        1.1819       0.32756       0.17630        2.3982        10.914       7.09148E-02   0.91416        2.6176       0.19756    
                        2.7647        4.1733        2.0498       2.51961E-02   0.32783       0.46187       0.92608        1.0057       6.14216E-03   0.10311    
     3    22.286        1.3836        2.8891       9.04157E-02   0.86275       0.10375        5.5717        10.283        1.1260       0.32864       0.24857        2.4093        10.902       7.23865E-02   0.91932        2.6941       0.19779    
                        2.7652        3.9979        2.0525       2.60330E-02   0.34044       0.42910       0.96386       0.98034       6.70748E-03   0.10370    
     4    22.298        1.3836        2.8924       9.07110E-02   0.81841       9.18121E-02    5.7980        10.271        1.1268       0.31081       0.27728        2.4196        10.889       8.78274E-02   0.92871        2.8767       0.19802    
                        2.7658        3.8570        1.5444       3.58332E-02   0.34067       0.43086       0.95161       0.98856       1.25658E-02   9.71515E-02
     5    22.309        1.3836        3.0358       9.10577E-02   0.81994       9.30026E-02    5.8048        10.267        1.1277       0.29158       0.31236        2.4296        9.8065       9.67014E-02    1.1084        2.9618       0.19825    
                        2.8111        3.8589        1.5438       3.72140E-02   0.35503       0.43267       0.95208       0.98773       2.57033E-02   9.22630E-02
     6    22.321        1.3836        3.0391       9.13961E-02   0.84611       9.05081E-02    5.8116        10.255        1.1282       0.29326       0.77926        2.4394        9.7977       0.10131        1.1308        3.0562       0.21743    
                        2.8117        3.8606        1.5379       3.90397E-02   0.38391       0.43472       0.90150       0.98688       3.13524E-02   8.81652E-02
     7    22.333        1.3836        3.2198       9.17409E-02   0.76548       9.00043E-02    5.8182        9.8614        1.1287       0.29494       0.93504        2.3506        9.7882       0.10681        1.1567        5.6351       0.21765    
                        2.8122        3.8622        1.7012       4.13306E-02   0.38409       0.43678       0.88642       0.98614       3.96769E-02   8.89322E-02
     8    22.345        1.3838        3.2227       9.20853E-02   0.74117       9.34662E-02    5.8250        9.9056        1.1247       0.30871        1.2648        2.3301        10.170       0.14444        1.1650        5.9939       0.21788    
                        2.8650        3.8217        1.6830       5.05910E-02   0.38428       0.46894       0.88698       0.98530       5.83578E-02   8.75189E-02
     9    22.357        1.3841        3.2255       9.24873E-02   0.74353       9.47017E-02    5.8318        9.8950        1.1202       0.29481        2.1930        2.3399        10.157       0.17681       0.93020        7.3444       0.21820    
                        3.0420        3.6156        1.6866       5.43103E-02   0.38446       0.47104       0.88752       0.99880       0.13079       8.83296E-02
    10    22.369        1.3843        3.2284       9.28029E-02   0.69199       9.61261E-02    5.8386        9.8842        1.1196       0.29456        2.4420        2.3164        10.145       0.18807       0.94258        10.255       0.21853    
                        3.0422        3.6176        1.5921       7.34662E-02   0.38465       0.47318       0.83433       0.99896       0.19751       8.69871E-02
    11    22.381        1.4306        3.2310       0.12713       0.66363       9.23137E-02    5.8454        9.8734        1.0666       0.29635        2.9955        2.3275        9.9416       0.19996       0.95558        13.318       0.21885    
                        3.2511        3.6160        2.1350       7.64344E-02   0.40087       0.47532       0.83450       0.99935       0.21997       8.77340E-02
    12    22.393        1.4308        3.2338       0.13696       0.62437       9.31487E-02    5.8523        9.8625        1.0399       0.29818        3.3218        2.3593        9.9691       0.21419       0.95115        15.960       0.21918    
                        3.2508        3.6174        2.0941       8.24710E-02   0.40104       0.47748       0.77954        1.0113       0.27545       8.84656E-02
    13    22.405        1.4313        3.2364       0.14280       0.62743       9.42573E-02    5.8596        9.8512        1.0392       0.22590        3.3153        2.3096        9.1094       0.22876       0.95109        16.287       0.21950    
                        3.2506        3.4033        2.1330       9.11156E-02   0.40120       0.47964       0.83023        1.0229       0.31032       8.69824E-02
    14    22.417        1.4317        3.2390       0.15575       0.68757       9.52709E-02    6.8886        9.8400        1.0270       0.22842        3.5271        2.2719        9.1008       0.25048        1.0294        16.517       0.21984    
                        3.2504        3.3509        2.1325       9.86987E-02   0.40137       0.67801       0.77669        1.0329       0.30940       8.76186E-02
    15    22.428        1.4919        3.2417       0.15604       0.58683       9.67809E-02    6.7923        9.8288        1.0126       0.23099        3.8730        2.2862        9.0922       0.26962       0.99950        16.463       0.22018    
                        3.1791        3.3532        2.2025       0.15641       0.40153       0.73752       0.77669        1.0353       0.31080       8.82719E-02
    16    22.440        1.4923        4.2837       0.15636       0.71394       0.10050        7.0594        9.8176        1.0122       0.23358        3.8768        2.3019        9.0837       0.29897        1.1228        17.764       0.30777    
                        3.1790        3.3550        2.2014       0.16987       0.40170       0.73933       0.74139       0.98282       0.34509       8.86535E-02
    17    22.452        1.4928        4.2848       0.19439       0.69219       9.91697E-02    7.0633        9.8064        1.0116       0.23485        3.8713        2.3190        9.0748       0.33167        1.1488        17.674       0.30801    
                        3.1792        2.6979        2.2672       0.21060       0.40187       0.74115       0.64233       0.96152       0.34770       8.91804E-02
    18    22.458        1.4930        4.2854       0.22654       0.69358       0.11115        8.2532        9.8010        1.0112       0.23378        4.0231        2.3276        8.9665       0.34192        1.1614        17.553       0.30813    
                        3.2142        2.7001        2.1390       0.22976       0.40195       0.74204       0.64226       0.96121       0.34937       8.94230E-02
     1    22.470        1.4935        4.2863       0.15687       0.72111       0.10453        7.0667        9.7937        1.0108       0.23790        3.8676        2.3386        9.0649       0.35709        1.1804        17.607       0.30826    
                        3.1796        2.7038        2.2653       0.21643       0.40204       0.74294       0.64220       0.98144       0.35078       8.96412E-02
     2    22.482        1.4939        4.2871       0.15720       0.72383       0.10386        7.0700        9.7864        1.0103       0.24048        3.8651        2.3508        9.0592       0.35549        1.1992        17.594       0.30838    
                        3.1796        3.3665        2.2640       0.22404       0.40212       0.74384       0.69714       0.98098       0.35220       8.98611E-02
     3    22.494        1.4943        3.2489       0.11119       0.53728       0.10665        6.6935        9.7793        1.0100       0.24208        3.9574        2.3617        9.0535       0.36969        1.1207        17.486       0.30850    
                        3.1796        3.3675        2.3378       0.20328       0.40222       0.74474       0.74186       0.98052       0.35321       9.00897E-02
     4    22.500        1.4349        3.2505       0.11149       0.59425       0.10764        6.8119        9.7754        1.0099       0.24291        3.8543        2.3676        9.0505       0.37895        1.2027        17.465       0.30857    
                        3.2497        3.3680        2.3369       0.21288       0.40227       0.74522       0.77819        1.0318       0.35366       9.02105E-02
     1    23.122        1.7588        3.3108       7.85340E-02   0.46080       0.13142        7.3497        9.5833       0.81860       0.40274        6.2582        2.5439        7.3368       0.81573        4.2676        17.500       0.37965    
                        3.2234        2.5666        2.0013        1.3750       0.64557       0.92317       0.30868        1.0007       0.61842       6.98396E-02
     2    23.744        1.7676        4.4786       6.35476E-02   0.59360       0.27599        8.5381        9.4506       0.56712       0.76034        9.7203        2.5811        6.3107        3.0767        4.8042        18.565       0.64794    
                        3.3356        1.9473       0.80218        3.3409       0.74506        1.5879       0.25173       0.88760        2.7540       3.69058E-02
     3    24.366        2.0785        5.4756       7.91619E-02   0.78260       0.58246        9.0532        9.3314       0.47098       0.69089        13.522        2.8217        5.2841        7.4869        9.4818        19.602       0.76308    
                        3.4936        1.5186        1.0381        12.904       0.85333        2.0000       0.18861       0.73869        5.9148       2.75816E-02
     4    24.988        2.1500        5.6970       0.12367        1.0566        2.1467        9.5247        9.3072       0.74818        1.3420        16.156        4.1321        4.5069        11.054        12.503        19.737       0.90086    
                        3.9620        1.0446        1.0512        15.147       0.87293        2.1211       0.20960       0.90030        9.6880       2.34838E-02
     5    25.610        2.2499        6.4783       0.33723        1.6898        4.4363        10.129        9.1800        1.1899        2.4390        17.748        6.0001        4.4071        13.592        15.101        19.848        1.0321    
                        3.9997       0.69158        1.9307        18.359       0.95401        2.5084       0.31242       0.99845        16.455       2.98431E-02
     6    26.232        2.4677        8.0633       0.69996        2.7338        5.2549        10.091        7.5918        2.8587        8.0059        19.048        6.0893        3.9785        18.078        16.990        19.857        1.0369    
                        4.5263       0.60838        1.8296        18.995        1.0079        2.7495       0.52997        1.6109        17.622       8.06476E-02
     7    26.853        2.6396        8.4162        1.3418        6.3669        10.301        12.000        6.9502        5.3500        12.710        19.267        8.6202        3.5393        18.447        17.487        19.738        1.0603    
                        5.8847       0.95090        3.6278        19.437        1.1056        3.3121        1.0497        1.7717        18.120       0.19445    
     8    27.475        2.7898        8.7818        2.9287        13.092        14.213        12.255        6.3256        7.3050        13.477        19.553        10.139        3.5459        18.431        18.487        19.486        1.0523    
                        6.5150        1.1253        6.4603        19.697        1.1379        3.2228        1.6887        1.8717        19.454       0.86889    
     9    27.500        2.7924        8.7813        2.9357        12.856        14.208        12.251        6.3253        6.9375        13.463        19.547        10.138        3.6623        18.428        18.595        19.483        1.0526    
                        6.5150        1.2161        6.4634        19.694        1.1401        4.1148        2.9154        1.8751        19.451       0.86905    
     1    27.512        2.7961        8.7804        2.8417        13.317        13.635        12.263        6.3247        6.8168        13.326        19.550        10.141        3.6149        18.425        18.475        19.475        1.0530    
                        6.0024        1.1295        6.4703        19.691        1.1419        4.1164        1.5793        1.8793        19.438       0.90137    
     2    27.524        2.7998        8.7795        2.8591        13.287        15.216        12.254        6.3241        6.6805        13.359        19.444        10.144        3.6229        18.404        18.466        19.467        1.0533    
                        6.0031        1.1319        6.4771        19.687        1.1436        3.2287        1.5877        1.8836        19.434       0.90150    
     3    27.536        2.8035        8.7785        2.9829        12.675        15.586        12.244        6.3235        6.6797        13.337        19.438        10.147        3.6308        18.401        18.456        19.414        1.0536    
                        6.0038        1.1343        6.4830        19.683        1.1454        3.2313        1.5961        1.8878        19.430       0.90163    
     4    27.548        2.7657        8.7776        3.1475        11.729        15.567        12.248        6.7195        6.5159        13.314        19.433        9.3505        3.6387        18.423        18.425        19.443        1.0539    
                        6.0046        1.1507        5.5261        19.679        1.1471        3.2339        1.6045        2.2301        19.415       0.90143    
     5    27.560        2.7976        8.7766        3.5034        11.211        16.018        12.239        6.6964        6.2394        13.343        19.405        8.6050        3.9024        18.419        18.417        19.436        1.0543    
                        6.0053        1.1531        5.5350        19.674        1.1488        3.2422        1.6128        2.2325        19.410       0.90124    
     6    27.571        2.8014        8.7757        3.6587        12.398        15.874        12.202        6.6948        6.2357        13.318        19.275        7.9909        3.7772        18.414        18.351        19.429        1.0546    
                        6.0060        1.1554        4.8445        19.684        1.1506        3.2447        1.6209        2.2348        19.406       0.80720    
     7    27.583        2.8294        8.3909        3.6766        12.385        15.852        11.597        6.6933        6.2319        13.256        19.270        8.0024        3.7845        18.401        17.693        19.464        1.0549    
                        6.0068        1.1577        4.8567        19.679        1.0955        3.2470        1.6291        2.1211        19.405       0.80733    
     8    27.595        2.8333        8.3909        3.7743        12.249        15.834        11.589        6.6918        6.2262        13.233        19.236        7.0615        3.7914        18.396        17.688        19.464        1.0552    
                        6.0075        1.1597        5.2049        19.666        1.0972        3.2493        1.6371        2.1235        19.400       0.82958    
     9    27.607        2.8371        8.6882        3.8297        12.136        16.157        11.582        6.6902        5.7768        13.112        19.162        7.0748        3.7977        18.391        17.647        19.524        1.0463    
                        6.0083        1.1620        4.7749        19.657        1.0989        3.2517        1.5905        2.1259        19.169       0.82964    
    10    27.619        2.8409        8.6876        4.0134        12.129        16.138        11.574        7.0630        5.7732        12.099        19.157        7.0882        3.8032        18.386        17.657        19.529        1.0466    
                        6.0090        1.1640        4.7818        19.635        1.1005        3.2540        1.5980        2.1284        19.166       0.82959    
    11    27.631        2.8447        8.6869        4.0277        11.789        16.116        11.317        7.6912        5.5047        12.079        19.152        7.1012        3.8079        18.381        17.498        19.529        1.0468    
                        6.0097        1.1661        5.0340        19.589        1.1022        3.2563        1.4146        2.1113        18.987       0.82957    
    12    27.643        3.7279        8.6862        3.9623        11.797        16.454        11.453        7.6874        5.1780        12.059        19.146        6.5063        3.8392        18.376        17.630        19.537        1.0470    
                        6.0104        1.1684        5.0384        19.584        1.1039        3.2585        1.5688        2.1142        18.984       0.79979    
    13    27.655        3.7303        8.6857        3.9924        11.804        16.469        11.445        7.6838        5.1766        11.335        19.140        5.4861        3.8434        18.371        17.622        19.481        1.0473    
                        6.2361        1.1708        5.0420        19.534        1.1056        3.2607        1.7430        2.1150        18.938       0.78046    
    14    27.667        3.7327        8.6849        4.1057        11.813        16.751        11.438        7.6802        6.3451        11.316        19.218        5.1610        3.8465        18.365        17.438        19.477        1.0475    
                        6.2364        1.1729        4.6720        19.466        1.1073        3.2629        1.7493        2.1130        18.716       0.78047    
    15    27.679        3.7350        8.6839        4.1271        12.074        13.442        11.298        7.6767        6.3377        11.298        18.675        5.1801        3.8486        18.359        17.289        19.473        1.0477    
                        6.2366        1.1751        4.4539        19.461        1.4700        3.2651        1.7555        2.1090        18.715       0.78047    
    16    27.690        3.7373        8.6830        4.1488        12.109        13.311        10.115        7.7528        5.8820        11.246        18.839        5.0824        3.8507        18.352        17.283        19.496        1.0479    
                        6.2368        1.1773        4.2654        19.455        1.4714        3.3476        1.7617        1.9491        18.485       0.78045    
    17    27.702        3.6720        9.0573        4.1537        11.606        12.512        10.112        7.7499        5.4691        9.5549        18.833        4.9485        3.6704        18.345        17.276        19.498        1.0481    
                        6.4291        1.1662        3.9311        19.449        1.4729        3.3495        1.7679        1.9495        18.011       0.75678    
    18    27.708        3.6732        8.9557        4.2473        11.615        14.057        10.111        7.8475        5.4675        9.5497        18.829        4.7034        3.6718        18.342        17.299        19.307        1.0482    
                        6.4290        1.1312        3.9333        19.446        1.4735        3.3504        1.7708        1.8668        18.013       0.75679    
     1    27.720        3.6754        9.0554        4.1817        11.630        12.538        10.107        7.7444        5.8692        9.5322        18.821        4.9815        3.8579        18.332        17.261        19.455        1.0487    
                        6.2369        1.1853        4.2783        19.438        1.4763        3.2733        1.7810        2.0255        18.486       0.78143    
     2    27.732        3.8423        9.0542        4.2165        12.226        13.382        11.410        7.6618        6.3088        9.6505        18.908        5.2740        3.8610        18.322        17.383        19.404        1.0491    
                        6.2372        1.1890        4.4593        19.492        1.4790        3.2777        1.7912        2.1262        18.871       0.80580    
     3    27.744        3.8444        8.7165        4.2321        12.155        14.381        11.400        7.6566        6.2988        9.6355        19.073        5.2957        3.8658        18.314        17.540        19.328        1.0504    
                        6.2376        1.1928        4.7756        19.522        1.1210        3.2821        1.8016        2.1401        18.963       0.84693    
     4    27.750        3.8455        8.7164        4.2404        12.130        17.092        11.395        7.6538        6.2936        9.6280        19.067        5.6506        3.8690        18.309        17.532        19.325        1.0507    
                        6.2378        1.1948        5.0867        19.563        1.1228        3.2845        1.8073        2.1473        18.961       0.84711    
     1    28.372        3.8954        9.1613        7.3131        13.547        17.542        11.556        6.9825        7.2814        9.9067        18.977        7.6030        3.7820        18.108        18.244        18.476        1.0775    
                        7.0673        1.4316        7.2883        19.642        1.1844        3.9040        3.0763        2.3961        19.360        1.5204    
     2    28.994        3.9507        10.403        11.531        17.355        18.066        11.630        5.5518        8.9466        10.296        18.643        11.573        3.9958        18.407        18.262        17.745        1.1142    
                        7.4580        1.7442        11.007        19.710        2.1829        5.4437        8.0987        3.7798        19.373        3.4559    
     3    29.616        4.9415        11.610        15.467        18.045        18.288        11.657        5.6795        9.5235        14.344        18.240        14.365        4.0696        18.411        18.148        15.631        1.1406    
                        7.7180        3.5644        12.437        19.673        5.3458        6.8284        9.8679        8.9860        19.199        7.7136    
     4    29.750        5.0884        11.594        15.440        18.015        18.413        11.469        5.2695        9.0541        14.408        17.825        14.324        4.0894        18.509        18.001        13.435        1.1454    
                        8.0911        3.9573        12.207        19.617        5.3334        6.8274        9.6716        9.2376        19.191        7.6739    
     1    29.762        5.0899        11.589        15.433        17.992        18.404        11.459        4.6739        9.1469        14.371        17.164        14.301        4.1883        18.502        18.186        12.626        1.1468    
                        8.0902        3.9727        13.838        19.594        5.0960        7.2264        9.6636        9.2260        19.201        7.6812    
     2    29.774        5.0915        11.356        15.425        18.038        18.395        11.449        4.6748        8.7799        14.234        17.258        14.869        4.7189        18.472        17.531        13.428        1.1479    
                        8.0893        3.9883        13.826        19.589        4.9122        6.9882        9.6672        9.4241        19.197        7.6873    
     3    29.786        5.0930        11.352        15.417        18.026        18.456        11.577        4.6758        8.7865        14.432        17.138        14.854        4.7293        18.466        17.457        13.442        1.1492    
                        8.0884        3.9288        13.816        19.585        4.9100        6.9877        9.6617        9.5713        19.219        7.7972    
     4    29.798        5.7963        11.348        15.410        18.013        18.460        11.566        4.6768        8.7945        14.622        16.826        14.833        4.4441        18.278        17.330        13.950        1.1504    
                        8.0177        3.9483        13.806        19.580        4.9078        6.9873        9.6569        9.9863        19.214        7.3321    
     5    29.809        5.7970        11.345        15.402        18.076        18.455        11.556        4.4653        8.4797        14.590        16.352        14.812        4.4584        18.273        17.310        14.636        1.1516    
                        8.0170        3.9677        14.096        19.556        4.9057        6.9869        9.7940        9.9769        19.209        7.3455    
     6    29.821        5.7977        11.393        15.393        18.054        18.503        11.545        4.4670        8.9675        14.119        16.340        14.792        4.4732        18.265        16.920        14.774        1.1528    
                        8.0164        3.9879        14.085        19.551        4.9035        6.9866        9.9113        10.208        18.970        7.3589    
     7    29.833        5.7984        11.389        15.385        17.968        18.504        11.411        4.4686        9.0320        14.093        16.187        15.048        4.2386        18.268        16.899        14.773        1.1540    
                        8.0161        4.0074        14.226        19.546        4.9014        6.9862        9.9071        10.192        18.967        7.3731    
     8    29.845        5.7991        11.386        15.310        17.957        18.466        11.402        4.4702        8.6980        14.067        16.173        15.024        4.2554        18.164        16.922        14.755        1.1552    
                        8.0159        4.0274        14.471        19.540        4.8992        7.2178        9.9030        10.716        18.965        7.4171    
     9    29.857        5.7998        11.383        15.301        17.946        18.534        11.392        4.4718        8.7131        14.185        15.894        14.998        4.3359        17.912        16.900        15.060        1.1564    
                        8.1329        4.0476        15.092        19.517        4.8971        7.2170        10.012        10.699        18.981        7.4528    
    10    29.869        5.8005        11.379        15.264        17.935        18.620        11.382        4.2284        8.7280        14.439        15.881        14.971        4.4238        17.725        16.866        15.059        1.1577    
                        8.1325        4.2493        15.257        19.505        4.8950        7.5668        10.393        10.687        18.977        7.4963    
    11    29.881        5.8012        11.376        15.255        18.047        18.616        11.372        4.0190        9.4677        14.410        15.669        14.945        5.5288        17.763        16.840        15.085        1.1590    
                        8.1321        4.0926        15.536        19.495        4.8929        7.7433        10.458        10.677        18.976        7.6064    
    12    29.893        5.8019        11.372        15.246        18.036        18.662        11.362        4.0222        9.5604        14.382        15.393        14.969        5.5411        17.705        16.571        15.084        1.1631    
                        8.1316        4.1143        15.519        19.485        4.8908        7.7407        10.855        10.665        18.767        7.6255    
    13    29.905        5.8026        11.369        15.233        18.082        18.770        11.335        4.0257        9.8791        14.706        15.088        15.023        5.7452        17.700        16.548        15.315        1.1644    
                        8.1312        4.1367        15.502        19.465        4.8887        7.8871        10.878        10.653        18.754        8.4488    
    14    29.917        5.8033        11.366        15.224        18.072        18.906        11.326        4.0292        10.328        14.676        15.091        15.058        6.0041        17.602        16.231        15.435        1.1657    
                        8.7700        5.5112        15.486        19.460        4.8869        8.0101        10.875        10.642        18.782        9.2979    
    15    29.928        5.8039        11.362        15.217        17.849        18.887        11.317        4.0326        10.498        14.748        14.840        15.031        6.0169        17.595        16.514        16.078        1.1670    
                        8.7681        5.5254        15.897        19.443        4.8851        8.1151        10.874        10.631        18.778        9.3063    
    16    29.940        5.8046        11.358        15.275        17.829        18.990        11.308        4.0360        10.670        14.248        14.974        15.155        6.0297        17.564        16.490        17.219        1.1683    
                        8.7664        5.5408        16.355        19.293        4.7676        8.2055        11.245        10.353        18.762        10.060    
    17    29.952        5.8053        11.354        15.266        17.750        18.963        11.299        4.0394        11.131        14.225        15.221        15.130        6.0424        17.423        14.652        17.266        1.1696    
                        8.7647        5.5532        16.397        19.205        4.7662        8.2021        11.298        10.336        18.737        9.7808    
    18    29.958        5.8057        11.352        15.309        17.707        19.164        11.294        4.3431        11.662        14.214        15.221        15.119        6.0482        17.419        14.158        17.262        1.1702    
                        8.7639        5.5612        16.441        19.158        4.7655        8.2005        11.299        10.348        18.697        9.7856    
     1    29.970        5.8063        11.348        15.183        17.801        18.998        11.288        4.0422        10.877        14.199        15.377        15.100        6.0577        17.439        16.473        17.256        1.1709    
                        8.7629        5.5750        16.375        19.201        4.7648        8.1989        11.300        10.339        18.732        9.7904    
     2    29.982        5.8070        11.344        15.172        18.149        18.988        11.281        4.0442        10.675        14.184        15.158        15.082        6.0672        17.448        16.457        17.249        1.1716    
                        8.7619        5.5851        16.362        19.234        4.7642        8.1973        11.244        10.335        18.729        10.372    
     3    29.994        6.1790        11.339        15.164        18.120        18.863        11.274        4.0463        10.678        14.640        14.927        14.913        6.0766        17.445        16.442        16.964        1.1723    
                        8.7609        5.5947        16.217        19.281        4.7635        8.1956        11.243        10.331        18.749        10.374    
     4    30.000        6.1790        11.337        15.160        17.989        18.858        11.270        4.0474        10.510        14.631        14.862        14.903        6.0816        17.457        16.145        17.031        1.1727    
                        8.7604        5.5998        16.210        19.280        4.7631        8.1947        10.869        10.603        18.748        10.375    
     1    30.622        6.1887        11.350        16.746        18.265        18.855        11.493        4.3901        12.471        13.828        15.542        14.101        9.3795        17.313        14.288        17.464        1.2038    
                        9.4382        8.0875        16.689        18.476        4.9499        7.9193        12.090        10.590        17.976        14.134    
     2    31.244        7.2473        11.370        18.269        18.659        18.643        11.415        4.6674        11.772        13.044        16.586        13.981        11.568        16.110        11.624        18.942        1.2524    
                        10.839        12.711        17.116        18.115        5.6879        8.2945        14.294        12.321        16.558        16.706    
     3    31.866        8.3350        11.270        18.354        18.611        18.435        9.7607        4.5881        15.358        10.986        16.051        13.879        12.907        15.884        12.892        19.605        1.7532    
                        11.278        14.992        17.144        17.968        6.2582        9.0837        14.719        14.487        16.387        17.169    
     4    32.000        8.8158        11.171        18.383        18.669        18.383        9.3169        4.5889        15.846        10.297        15.879        14.281        12.879        15.689        13.585        19.611        1.8661    
                        11.509        15.108        17.525        18.036        5.9363        9.0712        15.343        14.950        16.620        17.261    
     1    32.012        8.8127        11.167        18.324        18.599        18.347        9.3141        4.5890        15.599        10.301        15.600        13.799        12.873        15.690        13.779        19.607        2.0256    
                        11.506        15.098        17.338        18.037        5.9359        9.0694        15.344        14.945        15.961        17.260    
     2    32.024        8.8097        11.163        18.344        18.590        18.105        9.7472        4.5892        15.583        10.729        15.730        13.844        12.866        15.950        13.792        19.576        2.0262    
                        11.502        15.179        17.338        18.036        5.9355        9.0677        15.345        14.940        15.962        17.260    
     3    32.036        8.8067        11.159        18.339        18.328        18.123        9.7431        4.5893        15.567        10.731        15.812        13.836        12.859        15.949        12.953        19.529        2.0269    
                        11.499        15.168        17.140        18.036        5.9351        9.0659        15.345        14.935        15.964        17.229    
     4    32.048        8.8037        11.155        18.314        18.382        17.872        9.7391        4.2284        15.551        11.004        15.675        13.826        13.042        16.092        12.972        19.525        2.0276    
                        11.256        15.157        17.142        17.997        5.9347        9.0641        14.723        14.447        16.482        17.228    
     5    32.060        8.8007        11.151        18.300        18.409        17.761        10.151        4.2293        14.339        11.454        15.886        13.817        13.034        16.089        12.610        19.498        2.0282    
                        11.253        15.146        17.142        17.966        5.9342        9.0623        14.726        14.444        16.478        17.227    
     6    32.071        8.7977        11.023        18.296        18.404        17.681        10.746        4.2302        14.328        11.759        15.613        13.806        13.026        16.087        12.862        19.515        2.0289    
                        11.249        15.135        17.143        17.966        5.9338        9.0605        14.728        14.027        16.474        17.226    
     7    32.083        8.7946        11.019        18.261        18.429        17.350        11.585        4.2311        14.028        11.756        15.640        13.796        13.019        16.085        12.549        19.467        2.0296    
                        11.042        15.124        17.142        17.960        5.9333        9.0587        14.730        14.025        16.471        17.225    
     8    32.095        8.4657        11.015        18.256        18.457        16.761        11.576        3.8808        13.238        11.613        15.629        13.786        13.012        16.081        12.853        19.461        2.0302    
                        11.038        15.113        17.141        17.902        6.2511        9.0569        14.732        14.023        16.468        17.183    
     9    32.107        8.4634        11.010        18.252        18.447        16.757        11.567        3.8827        12.974        11.489        15.626        13.775        13.004        16.076        12.869        19.454        2.0309    
                        10.935        15.101        17.139        17.901        6.2501        8.5800        14.734        14.020        16.463        17.146    
    10    32.119        8.4610        11.006        18.221        18.444        16.751        11.557        3.8844        12.400        11.788        15.645        13.765        12.997        16.036        12.883        19.448        1.8681    
                        10.813        15.090        17.137        17.899        6.2491        8.5788        14.735        14.017        16.459        17.145    
    11    32.131        8.4586        11.124        18.222        18.355        16.643        11.548        3.8861        12.398        11.923        15.639        13.754        12.989        15.442        12.891        19.442        1.8688    
                        10.810        15.077        16.923        17.897        6.2481        8.5776        15.160        14.014        16.374        17.144    
    12    32.143        8.4563        11.119        18.234        17.751        16.350        11.539        3.8878        12.099        11.919        15.627        13.625        12.982        15.389        11.585        19.436        1.8696    
                        10.807        15.065        16.757        17.814        6.2470        8.5765        15.159        14.011        16.373        17.143    
    13    32.155        8.6188        11.114        18.213        17.712        16.349        11.530        3.4908        12.098        11.915        15.247        13.614        12.345        15.599        11.601        19.429        1.8704    
                        10.804        14.924        16.756        17.806        6.2460        8.5754        15.159        14.008        15.711        17.142    
    14    32.167        8.6159        11.069        18.240        17.451        15.705        11.521        3.4933        12.097        11.873        15.401        13.604        12.339        15.748        11.220        19.295        1.8712    
                        10.800        14.912        16.755        17.722        6.2449        8.5742        15.158        14.002        16.317        17.141    
    15    32.179        8.6130        11.064        18.116        17.533        15.046        11.511        3.8353        11.488        12.181        15.337        13.594        12.333        15.746        11.236        19.300        1.8719    
                        10.797        14.899        16.463        17.720        6.2439        8.5731        15.157        13.997        16.364        17.097    
    16    32.190        8.5643        11.058        18.109        17.530        15.076        11.502        3.8371        11.489        12.248        15.323        13.642        12.326        15.806        11.251        19.320        1.8727    
                        10.794        14.886        16.382        17.677        6.2428        8.5719        14.451        13.992        16.262        17.096    
    17    32.202        9.1654        11.053        18.121        17.527        14.426        11.493        4.1148        10.949        12.240        15.090        14.543        12.321        15.803        11.265        19.266        1.8735    
                        10.645        14.874        16.381        17.632        6.2418        8.5708        14.453        13.986        16.260        17.095    
    18    32.208        9.1637        11.050        18.117        17.417        14.430        11.489        4.1154        10.951        12.237        15.039        14.536        12.319        15.802        10.758        19.263        1.8738    
                        10.643        14.868        16.267        17.606        6.2413        8.5702        14.454        13.984        16.259        17.094    
     1    32.220        9.1609        11.046        18.111        17.523        14.439        11.477        3.8418        11.496        12.226        15.106        14.515        12.308        15.798        11.293        19.298        1.8753    
                        10.784        14.848        16.463        17.628        6.2391        8.5677        14.457        13.975        16.255        17.134    
     2    32.232        9.1581        11.041        18.106        17.521        14.448        11.465        3.5055        11.497        11.850        15.293        13.529        12.297        15.795        11.313        19.270        1.8767    
                        10.779        14.829        16.674        17.709        6.2370        8.5652        15.160        13.967        16.303        17.132    
     3    32.244        9.1439        11.036        18.101        17.519        15.113        11.453        3.5095        11.498        11.843        15.153        13.516        12.914        15.789        11.720        19.393        2.0416    
                        10.774        14.954        16.673        17.791        6.2352        8.5627        15.158        13.959        15.707        17.165    
     4    32.250        9.1424        11.034        18.099        17.518        15.751        11.447        3.5116        11.499        11.840        15.143        13.509        12.907        15.786        11.731        19.387        2.0422    
                        10.772        14.944        16.918        17.789        5.9165        8.5614        15.158        13.955        15.710        17.205    
     1    32.872        9.6401        10.946        18.004        17.279        16.334        9.6198        3.7759        15.260        9.6216        14.670        13.512        12.791        15.614        13.377        19.319        2.0763    
                        11.446        15.477        17.324        18.105        5.6477        8.5336        17.593        14.745        16.120        18.550    
     2    33.494        9.2670        9.3651        17.482        17.547        15.290        9.2002        3.5802        14.988        8.9673        14.983        13.282        12.680        15.445        13.346        19.044        3.7708    
                        11.464        16.521        18.291        18.669        5.9693        8.8262        17.614        16.578        18.209        18.709    
     3    34.116        9.1952        9.1771        16.323        18.271        16.730        8.8921        3.1778        14.594        8.4782        15.615        13.045        13.064        14.619        13.861        18.014        4.3100    
                        11.814        17.186        18.463        19.228        6.0134        8.8330        17.708        14.720        18.209        18.821    
     4    34.738        8.9400        8.6986        15.348        18.384        18.157        8.6649        2.7198        14.652        8.4412        15.398        12.825        13.468        14.467        14.542        16.312        5.6993    
                        11.781        17.420        18.094        19.395        6.0279        9.0837        17.914        14.543        18.730        18.583    
     5    35.250        8.9208        8.1298        15.886        18.327        17.649        8.0865        3.0830        14.171        8.5193        15.969        12.598        14.047        15.918        15.616        16.325        5.6842    
                        11.750        17.774        17.891        19.503        7.1167        8.9411        17.789        13.715        19.098        18.566    
     1    35.262        8.9187        8.1286        16.067        18.327        17.366        8.0862        3.0881        14.160        8.5225        16.118        12.277        13.824        15.911        16.522        16.165        5.6832    
                        11.746        17.769        17.890        19.512        7.1168        8.9386        17.785        14.100        19.073        18.243    
     2    35.274        8.9165        8.1275        16.068        18.325        17.456        7.9635        3.0934        14.149        8.5235        16.102        12.274        13.814        15.673        17.727        16.186        5.6823    
                        11.747        17.764        18.155        19.544        7.1170        9.0143        17.786        14.179        19.029        18.222    
     3    35.286        8.9144        8.1263        16.296        18.356        17.458        7.3782        3.0987        14.139        8.5172        16.090        12.080        13.949        15.668        17.610        16.419        5.6814    
                        11.743        17.814        18.210        19.541        7.1171        9.0115        17.745        14.177        19.029        18.197    
     4    35.298        8.9178        8.5255        16.486        18.354        17.494        7.3208        3.1040        14.130        8.5218        15.987        12.120        13.939        15.663        17.278        16.488        5.6805    
                        11.753        17.868        18.021        19.536        7.1172        9.0088        17.742        14.245        19.022        17.906    
     5    35.309        8.9158        8.5238        16.484        18.353        17.508        7.3216        3.1093        14.216        8.5285        16.936        12.122        13.930        14.956        17.267        16.762        5.6796    
                        11.749        17.904        18.020        19.532        7.1174        9.2441        17.740        14.590        19.018        17.905    
     6    35.321        8.8792        8.5222        16.483        18.360        17.630        7.3223        3.1333        14.206        8.9750        16.916        12.123        14.098        15.155        17.239        16.761        5.6787    
                        11.745        18.026        17.980        19.529        7.1176        9.2407        17.687        15.279        19.024        17.857    
     7    35.333        8.8774        8.5208        16.612        18.361        17.711        7.3078        3.1386        13.570        9.0742        16.893        12.126        12.847        14.538        17.215        16.845        5.6779    
                        11.741        18.225        17.979        19.507        7.1177        9.2372        17.669        15.279        19.044        18.140    
     8    35.345        8.8756        8.9978        16.610        18.241        17.660        7.2975        3.1440        13.485        9.2375        15.203        12.635        12.844        14.749        16.852        16.947        5.6771    
                        11.737        18.217        17.959        19.496        7.1178        9.2338        17.667        15.267        18.993        18.136    
     9    35.357        8.8738        8.9957        16.567        18.234        17.772        6.9512        3.3382        14.158        9.6170        15.035        12.585        12.908        14.752        16.832        16.929        5.6765    
                        11.732        18.210        17.980        19.521        7.7163        9.2303        17.663        15.257        18.988        18.062    
    10    35.369        8.8721        8.9936        16.568        18.246        17.770        6.9535        3.3436        14.152        9.0439        15.038        12.584        12.906        14.756        16.812        16.897        5.6760    
                        11.728        18.203        17.980        19.526        7.7153        9.2270        17.614        15.246        18.945        18.058    
    11    35.381        8.8703        9.0521        16.570        18.295        17.767        6.9560        3.3489        14.145        9.0490        14.353        12.541        12.750        15.136        16.792        17.068        4.3790    
                        11.724        18.196        18.098        19.547        7.7144        9.2237        17.609        15.235        18.944        17.968    
    12    35.393        8.8686        9.0497        16.964        18.291        17.765        6.9588        3.7118        14.141        9.5241        14.908        12.543        12.748        15.137        16.772        17.056        4.3802    
                        11.740        18.266        18.096        19.543        7.7134        8.9516        17.649        15.268        19.007        17.922    
    13    35.405        8.8671        9.5426        17.341        18.138        17.844        6.9634        3.7163        14.136        10.285        14.906        12.482        12.745        15.307        16.779        16.824        4.3816    
                        11.735        18.260        18.231        19.549        7.7124        9.0233        17.726        15.258        19.021        17.918    
    14    35.417        8.8655        9.5393        17.339        18.161        17.775        6.9866        3.7207        14.131        10.282        15.219        12.353        13.246        15.344        16.636        16.813        4.3831    
                        11.731        18.346        18.422        19.566        7.7115        9.0206        17.712        15.241        19.068        17.914    
    15    35.428        8.8640        9.5361        17.336        18.151        17.670        6.9900        4.0718        14.153        10.279        14.016        12.311        13.242        14.417        15.620        16.654        4.3845    
                        11.727        18.340        18.344        19.560        7.7105        9.1921        17.705        15.232        19.025        17.909    
    16    35.440        8.8624        9.5329        17.418        18.186        17.671        6.9941        4.0754        14.087        10.264        14.776        12.316        13.238        14.424        14.944        16.636        4.3859    
                        11.723        18.423        18.374        19.545        7.7097        9.3284        17.077        15.204        19.115        17.696    
    17    35.452        8.8609        9.5297        17.904        18.327        17.714        6.9987        4.0800        14.001        10.191        16.242        12.320        13.234        14.764        14.941        16.318        4.3874    
                        11.719        18.417        18.261        19.541        7.7088        9.4336        16.942        14.937        19.113        17.589    
    18    35.458        8.8665        9.5281        17.902        18.293        17.714        7.0007        4.3779        14.504        11.296        16.314        12.322        13.233        14.766        15.160        16.235        4.3881    
                        11.718        18.415        18.259        19.539        7.7084        9.4314        16.942        14.751        19.112        17.588    
     1    35.470        8.8582        9.5245        17.884        18.316        17.673        7.0033        4.0850        13.995        10.258        16.364        12.326        13.231        14.769        14.938        16.630        4.3888    
                        11.714        18.411        18.257        19.536        7.7080        9.4292        16.942        14.931        19.111        17.587    
     2    35.482        8.8562        9.3335        17.319        18.192        17.673        7.0064        4.0875        13.992        10.256        14.746        12.330        13.229        14.546        14.937        16.650        4.3896    
                        11.712        18.320        18.303        19.534        7.7076        9.3183        16.942        15.185        19.110        17.586    
     3    35.494        8.8542        9.3301        17.802        18.300        17.774        7.0092        4.0899        14.128        10.254        14.750        12.334        13.226        14.936        14.938        16.668        4.3904    
                        11.709        18.316        18.203        19.537        7.7072        9.3164        17.076        15.180        19.016        17.585    
     4    35.500        8.8661        9.3283        17.798        18.299        17.773        7.0104        4.0911        14.126        10.253        15.053        12.336        13.225        14.937        15.313        16.667        4.3908    
                        11.708        18.314        18.202        19.535        7.7070        9.3155        17.701        15.189        19.004        17.689    
     1    36.122        8.8446        8.1226        17.742        18.578        18.017        7.0683        4.4270        13.725        9.7021        15.962        12.301        12.309        14.697        14.961        15.963        4.3448    
                        11.668        18.192        18.025        18.975        8.4076        9.2974        16.999        14.686        19.029        17.370    
     2    36.744        8.8926        7.4372        17.656        18.632        18.423        7.1018        4.7185        13.842        10.243        14.542        12.194        12.320        14.923        15.368        17.058        4.3809    
                        11.480        18.082        17.875        19.149        9.4631        9.2915        16.865        12.142        19.063        16.501    
     3    37.366        9.1363        6.7068        17.590        18.865        18.295        7.1705        5.3698        14.269        11.272        14.491        12.768        11.930        14.944        16.903        18.927        5.3210    
                        11.380        17.245        17.893        19.089        10.524        8.7052        17.291        13.363        18.306        15.949    
     4    37.500        9.1294        6.7091        17.622        18.900        18.491        7.2149        5.4776        14.256        10.973        14.499        12.767        12.383        15.679        16.895        19.019        5.4960    
                        11.371        17.322        18.045        19.118        9.4109        8.6935        17.282        13.109        18.375        16.244    
     1    37.512        9.1273        6.7095        17.853        18.883        18.589        7.2183        5.4788        14.252        10.970        14.024        12.769        12.386        15.676        16.800        18.990        5.4966    
                        11.369        17.325        17.892        19.061        9.4094        8.6918        17.281        13.110        18.375        16.244    
     2    37.524        9.1251        6.7099        17.868        18.979        18.586        7.1824        5.2329        13.644        10.980        14.034        12.771        12.389        15.142        16.858        18.938        5.4971    
                        11.367        17.327        17.892        19.056        9.4079        8.6901        17.279        13.112        18.306        16.245    
     3    37.536        9.1229        6.7103        18.024        18.970        18.314        7.1862        5.1567        13.640        11.289        14.044        12.775        12.715        14.864        16.769        18.924        5.4976    
                        11.365        17.261        17.892        19.050        9.4064        8.6884        17.277        13.114        18.306        16.670    
     4    37.548        9.1208        6.4722        18.097        18.787        18.315        7.1463        5.0451        13.633        10.740        14.054        12.777        12.717        14.865        16.761        19.197        5.4982    
                        11.363        17.263        17.892        19.026        9.4048        8.6867        17.275        13.115        18.307        16.669    
     5    37.560        9.1186        6.0399        18.089        18.840        18.316        7.1512        5.0471        13.627        10.736        13.664        12.776        13.290        14.928        16.694        19.179        5.4987    
                        11.361        17.174        17.893        19.010        9.4033        8.6850        17.566        13.035        18.308        16.668    
     6    37.571        9.1348        6.0411        18.081        18.809        18.316        7.1550        4.8585        12.955        10.732        12.636        12.504        13.289        15.028        16.793        19.162        5.4993    
                        11.359        17.176        17.893        18.999        9.4018        8.6833        17.563        13.037        18.309        16.545    
     7    37.583        9.1325        6.0424        18.072        18.807        18.361        7.1587        4.8607        12.952        10.264        13.735        12.153        13.288        15.217        16.785        19.403        5.4999    
                        11.357        17.177        17.894        18.994        9.4003        8.6817        17.702        13.039        18.139        16.435    
     8    37.595        9.1595        5.8696        18.065        18.967        18.511        7.1623        4.8628        12.950        10.261        13.361        12.153        13.288        15.216        16.777        19.379        5.5005    
                        11.355        17.245        17.894        18.988        9.3988        8.6800        17.698        13.041        18.142        16.435    
     9    37.607        9.1571        5.8116        17.959        18.964        18.509        7.1658        4.6767        12.582        10.259        13.505        12.153        13.501        15.215        16.324        19.354        5.5011    
                        11.354        17.246        17.890        18.982        9.3973        8.6783        17.703        12.984        18.332        16.435    
    10    37.619        9.1547        5.8131        17.953        18.975        18.415        7.1693        4.6792        12.582        9.8549        13.291        12.152        13.500        15.063        15.415        19.331        5.9781    
                        11.352        17.248        17.890        18.989        9.3958        8.6767        17.699        12.831        19.245        16.435    
    11    37.631        9.1984        5.8147        17.946        18.951        18.414        7.1728        4.6817        12.581        9.7879        13.302        12.151        13.499        15.063        15.191        19.309        5.9784    
                        11.350        17.166        17.890        19.024        9.3943        8.6750        16.589        12.833        19.239        16.173    
    12    37.643        9.1961        5.8162        17.872        18.829        18.412        7.1761        4.6842        12.581        9.3130        13.310        12.149        13.219        15.062        15.194        19.388        4.8177    
                        11.347        17.167        17.890        19.057        9.3929        8.4935        16.628        12.835        19.235        16.174    
    13    37.655        9.1935        5.9621        17.858        18.827        18.410        7.1794        4.6866        12.581        9.3149        13.316        12.067        12.068        15.028        15.197        19.364        4.8187    
                        11.345        17.169        17.880        19.052        9.3914        8.4923        16.629        12.837        19.230        16.176    
    14    37.667        9.1909        5.9630        17.850        18.795        18.405        7.1825        4.6891        12.059        9.2034        13.323        12.111        12.070        15.028        15.200        19.370        4.8198    
                        11.360        17.170        17.883        19.047        9.3899        8.4910        16.504        12.414        19.225        16.177    
    15    37.679        9.1882        5.9638        17.840        18.793        18.324        7.1856        4.6915        11.745        9.0147        13.427        12.218        12.072        15.026        15.202        18.160        4.8209    
                        11.358        17.172        17.881        19.065        9.3884        8.4897        16.506        12.417        19.066        16.179    
    16    37.690        9.1855        5.8523        17.764        18.801        18.318        7.1886        4.8888        11.396        9.0179        14.178        12.215        12.074        15.025        15.386        17.338        4.8220    
                        11.356        17.173        17.748        19.045        9.3870        8.4885        16.428        12.420        19.062        16.180    
    17    37.702        9.2100        5.8532        17.673        18.900        18.457        7.1904        4.8905        11.402        8.8669        14.138        12.212        12.076        15.024        15.386        17.210        4.8230    
                        11.354        17.211        17.747        19.039        9.3855        8.4872        16.790        12.423        19.043        16.181    
    18    37.708        8.9507        5.8536        17.669        18.898        18.455        7.1916        4.8912        11.405        8.8685        14.135        12.211        12.076        15.023        15.398        17.095        4.8235    
                        11.353        17.211        17.746        19.036        9.3848        8.4866        16.791        12.424        19.042        16.182    
     1    37.720        9.2066        5.9834        17.663        18.895        18.431        7.1961        4.8936        11.413        9.0281        14.113        12.207        12.079        15.019        15.384        17.284        4.8255    
                        11.349        17.177        17.745        19.027        9.3818        8.4840        16.432        12.429        19.051        16.185    
     2    37.732        9.1773        5.9838        17.805        18.939        18.427        7.2000        4.7018        11.767        9.2234        13.431        12.204        12.081        15.014        15.200        18.093        5.9831    
                        11.329        17.179        17.840        19.011        9.3788        8.4813        16.514        12.434        19.198        16.188    
     3    37.744        9.1751        6.1311        17.799        18.830        18.511        7.2039        4.7054        12.400        9.3355        12.880        12.044        12.085        14.844        15.202        17.901        5.9835    
                        11.326        17.181        17.879        19.003        9.3759        8.4787        16.825        12.853        19.190        16.191    
     4    37.750        9.1740        6.1312        17.796        18.776        18.431        7.2061        4.7073        12.595        9.3359        13.352        12.043        12.086        15.033        15.202        19.189        5.9837    
                        11.324        17.182        17.879        19.017        9.3743        8.4773        16.760        12.855        19.186        16.193    
     1    38.372        9.2861        5.7115        17.100        18.626        18.305        7.3040        5.2885        13.157        9.3177        12.610        12.091        11.825        15.403        16.613        18.260        5.9872    
                        11.380        17.389        17.963        18.801        9.9904        8.6088        17.139        12.975        18.670        17.794    
     2    38.994        8.5918        5.5323        17.907        18.423        17.788        7.3382        5.1500        13.849        9.7154        14.532        12.799        11.375        16.373        16.752        18.198        7.0241    
                        11.426        17.165        17.993        15.889        9.1971        8.1020        16.997        15.776        17.880        17.827    
     3    39.616        7.9982        5.2411        17.570        18.180        18.003        7.3799        5.3059        13.870        9.7542        16.499        12.635        12.535        16.667        16.684        17.859        7.9648    
                        10.368        17.894        18.183        18.462        9.1294        7.7296        17.711        14.736        16.523        18.516    
     4    39.750        7.8233        5.2428        17.565        18.176        18.094        7.3994        5.4496        14.334        9.6093        16.453        12.699        12.736        16.579        16.756        17.815        8.5236    
                        10.055        17.885        18.270        18.654        8.6823        7.7249        17.995        14.460        17.121        18.520    
     1    39.762        7.8867        5.2431        17.563        18.175        18.091        7.4029        5.4553        12.996        9.9118        16.525        12.794        12.737        16.500        16.741        17.625        8.5216    
                        10.363        17.850        18.269        18.664        8.6804        7.6852        17.989        14.453        17.131        18.517    
     2    39.774        8.2204        5.2434        17.561        18.176        18.177        7.4063        5.6727        12.991        9.7419        16.628        12.698        12.738        16.357        16.771        17.539        8.5196    
                        10.362        17.846        18.426        18.484        7.1230        7.6833        17.869        14.446        17.289        18.514    
     3    39.786        8.2189        5.2737        18.684        18.169        18.145        7.4975        5.6783        12.869        9.9183        16.634        12.076        13.888        16.347        16.734        17.563        8.5174    
                        10.361        17.843        18.347        18.770        7.1237        7.6812        17.904        14.813        17.552        18.526    
     4    39.798        8.2175        5.2740        18.676        18.174        18.111        7.5008        5.6838        12.866        9.9249        16.687        11.541        13.835        16.285        16.699        17.559        8.5153    
                        10.360        17.839        18.345        18.761        7.1246        7.6792        17.898        14.891        17.689        18.523    
     5    39.809        8.0783        5.2745        18.668        18.155        18.190        7.5042        5.6893        12.419        10.316        16.945        11.957        13.831        16.154        16.594        17.379        8.5132    
                        10.359        17.850        18.281        18.756        7.1254        7.4656        17.891        15.042        17.731        18.571    
     6    39.821        8.0771        5.2750        18.660        18.157        18.183        7.5076        5.6949        12.420        10.318        16.882        11.961        13.827        16.044        16.566        17.455        8.5110    
                        10.357        17.770        18.316        18.652        7.1262        7.2135        17.885        15.033        17.949        18.567    
     7    39.833        8.0759        5.2755        18.652        18.161        18.162        7.5110        5.7003        12.423        10.320        16.969        12.013        13.375        16.035        16.575        17.454        8.5089    
                        10.356        17.743        18.316        18.587        7.1270        7.2123        17.879        15.025        17.952        18.625    
     8    39.845        8.0748        5.1145        18.644        18.162        18.215        7.5146        5.9156        12.426        10.321        17.026        12.349        13.732        15.886        16.573        17.563        8.5067    
                        10.355        17.721        18.315        18.675        7.1278        7.1025        17.924        15.503        18.066        18.622    
     9    39.857        8.0736        5.1158        18.637        18.174        18.190        7.5182        5.9205        11.575        10.217        17.038        12.683        13.729        15.879        16.561        17.858        8.5046    
                        10.353        17.717        18.334        18.700        7.1287        7.1009        17.855        15.494        18.067        18.668    
    10    39.869        8.0725        5.1171        18.629        18.171        18.106        7.5209        5.8269        11.584        10.222        17.111        12.685        13.726        15.873        16.533        18.002        8.5025    
                        10.352        17.706        18.333        18.848        7.1294        7.0990        17.840        15.538        18.022        18.664    
    11    39.881        7.9979        5.1185        18.330        18.113        18.080        7.5238        5.8325        11.594        10.066        17.056        13.135        13.893        15.867        16.521        18.139        8.5004    
                        10.351        17.687        18.332        18.844        7.1301        7.0969        17.834        15.529        18.094        18.632    
    12    39.893        7.9970        5.1201        18.325        18.121        18.229        7.5264        5.8380        11.604        10.231        17.130        13.136        14.101        15.861        16.488        18.151        8.4983    
                        10.350        17.657        18.436        18.902        7.1308        7.1170        17.893        15.521        18.080        18.525    
    13    39.905        7.9960        5.1216        18.323        18.123        18.146        7.5298        5.8434        11.614        10.234        17.251        13.138        14.098        15.855        16.360        18.142        8.4962    
                        10.348        17.611        18.572        18.909        7.1315        7.1147        17.886        15.615        18.156        18.467    
    14    39.917        7.9951        5.1232        18.318        18.218        18.163        7.5332        5.7508        11.623        10.872        17.333        13.140        14.094        15.978        16.294        18.238        8.4940    
                        10.338        17.608        18.612        18.927        7.1321        7.1124        17.880        15.609        18.341        18.471    
    15    39.928        7.9942        5.1250        18.344        18.236        18.133        7.5663        5.9939        11.633        10.934        17.315        13.143        14.090        16.045        16.284        18.229        8.4920    
                        10.190        17.606        18.609        19.080        7.1329        7.1102        17.898        15.617        18.313        18.470    
    16    39.940        7.9933        5.1269        18.340        18.280        18.196        7.5711        5.8511        12.421        11.184        17.016        13.147        13.798        16.153        16.132        17.986        8.6543    
                        10.189        17.603        18.583        19.081        7.1337        7.1079        17.891        15.460        18.351        18.444    
    17    39.952        7.9924        5.1287        18.271        18.444        18.172        7.5760        5.8580        12.427        11.179        17.104        13.150        14.932        16.110        16.123        18.284        8.4700    
                        10.188        17.680        18.556        19.112        7.1345        7.1056        17.885        15.452        18.435        18.442    
    18    39.958        7.9920        5.1297        18.269        18.444        18.170        7.5783        5.8612        13.004        11.372        17.018        13.755        14.929        16.106        16.119        18.282        8.4690    
                        10.187        17.679        18.554        19.084        7.1349        7.1045        17.881        15.501        18.533        18.441    
     1    39.970        7.9909        5.1318        18.260        18.380        18.195        7.5820        5.8659        12.433        11.173        17.088        13.154        14.925        16.100        16.113        18.111        8.4679    
                        10.187        17.677        18.579        19.108        7.1352        7.1035        17.878        15.443        18.425        18.441    
     2    39.982        7.9898        5.1337        18.299        18.226        18.238        7.5857        5.8700        12.436        11.170        16.978        13.157        14.076        16.130        16.109        17.981        8.4668    
                        10.186        17.596        18.600        19.099        7.1356        7.1024        17.874        15.589        18.422        18.451    
     3    39.994        7.8872        5.1356        18.293        18.135        18.215        7.5665        5.8740        11.660        10.996        16.755        13.160        14.075        16.007        16.105        18.219        8.4657    
                        10.185        17.595        18.598        18.956        7.1360        7.1013        17.871        15.584        18.330        18.450    
     4    40.000        7.8867        5.1365        18.290        18.134        18.210        7.5677        5.8762        11.664        10.995        17.337        13.162        14.074        16.005        16.103        18.217        8.4651    
                        10.185        17.594        18.554        18.956        7.1362        7.1008        17.868        15.582        18.365        18.450    
     1    40.622        7.7512        5.2430        18.361        18.149        15.940        8.0939        6.6351        13.026        11.718        16.090        13.117        15.017        15.985        15.988        18.222        8.6137    
                        10.033        17.580        18.456        19.251        6.5210        6.1218        17.755        16.006        18.301        18.652    
     2    41.244        7.7383        4.6175        17.345        18.183        15.863        8.8339        7.3463        13.768        12.861        16.497        13.200        14.189        15.389        16.334        18.715        8.5830    
                        10.062        17.700        18.590        19.298        6.9970        6.1434        17.112        15.214        18.699        18.637    
     3    41.866        7.5128        4.8669        17.447        18.259        18.713        9.7830        8.2034        15.720        12.964        17.238        13.024        15.207        16.117        16.933        19.587        10.264    
                        10.084        17.005        18.570        19.299        7.0629        6.0872        16.791        15.360        18.363        18.526    
     4    42.488        7.1548        4.8964        17.711        18.467        19.069        10.157        9.1370        15.438        12.768        17.743        13.779        14.149        16.048        17.168        19.781        10.383    
                        10.075        16.948        18.247        19.360        6.3533        5.6854        17.047        15.806        18.688        18.435    
     5    43.000        7.0599        4.8879        17.732        19.128        19.012        10.147        9.0833        15.318        12.738        18.678        14.681        13.606        17.166        17.545        19.815        10.304    
                        9.9265        17.532        18.541        19.037        5.9267        5.7656        17.476        15.646        18.752        18.470    
     1    43.012        7.0590        4.8954        17.731        19.128        18.967        10.147        9.0797        15.308        12.399        18.648        14.681        13.605        17.168        17.543        19.804        10.302    
                        9.7589        17.530        18.539        19.040        5.9272        5.7216        17.475        15.642        18.898        18.468    
     2    43.024        7.0113        4.8989        17.822        19.167        18.516        10.147        9.0765        15.296        12.396        18.778        14.680        14.069        17.169        17.501        19.784        10.300    
                        9.7581        17.457        18.524        19.043        5.9279        5.7212        17.474        15.755        18.896        18.466    
     3    43.036        7.0103        4.9025        17.827        19.160        18.594        10.146        9.0732        15.284        12.730        18.279        14.680        14.067        17.035        17.524        19.768        10.297    
                        9.7574        17.455        18.522        19.002        5.9284        5.7209        17.472        15.750        18.893        18.465    
     4    43.048        7.0094        4.9060        17.570        19.193        18.632        10.146        9.0699        14.451        12.724        18.277        14.679        14.064        16.534        17.362        19.766        10.295    
                        9.7565        17.453        18.444        18.882        5.9290        5.7206        17.470        15.744        19.066        18.511    
     5    43.060        7.0084        4.7841        17.571        19.025        18.632        10.145        9.0667        14.444        12.718        18.646        14.389        14.062        16.537        17.360        19.766        10.292    
                        9.7556        17.452        18.443        18.890        5.9296        6.0120        17.667        15.723        19.062        18.547    
     6    43.071        7.0074        4.7879        17.572        19.025        18.754        10.144        9.0631        14.437        12.712        18.370        14.389        14.059        16.540        17.390        19.747        10.290    
                        9.7548        17.450        18.443        18.895        5.9302        6.0113        17.664        15.712        19.058        18.545    
     7    43.083        7.0065        4.7916        17.573        19.020        18.751        10.143        9.0596        14.429        12.694        18.175        14.325        14.056        16.287        17.448        19.745        10.288    
                        9.7538        17.449        18.165        18.819        5.9307        6.0106        17.661        15.706        18.892        18.501    
     8    43.095        7.0057        4.7953        17.573        19.205        18.763        10.141        9.0561        13.826        12.679        18.380        14.461        14.053        15.961        17.445        19.738        10.285    
                        9.7529        17.447        18.166        18.611        5.9313        5.9891        17.670        15.700        18.889        18.499    
     9    43.107        6.6414        4.7991        17.573        19.199        18.951        10.148        9.0526        13.821        12.671        18.374        13.857        14.050        15.966        17.442        19.736        10.283    
                        9.7520        17.446        18.150        18.368        5.9319        5.9885        17.668        15.694        18.887        18.497    
    10    43.119        6.6411        4.8027        17.573        19.074        18.024        10.146        9.0491        13.815        12.664        18.368        13.342        14.096        15.971        17.437        19.733        10.280    
                        9.7513        17.444        18.352        18.489        5.9325        5.9880        17.704        15.771        18.719        18.495    
    11    43.131        6.6408        4.8063        17.572        19.070        17.907        10.143        9.0457        13.810        12.657        17.998        13.346        14.092        15.975        17.432        19.676        10.278    
                        9.7505        17.443        18.328        18.496        5.9330        5.9874        17.534        15.764        18.719        18.493    
    12    43.143        6.6404        4.8099        17.571        19.066        17.874        10.140        9.0422        13.721        12.640        17.510        13.303        14.089        15.980        17.162        19.662        10.276    
                        9.9096        17.441        18.328        18.502        5.9336        5.9868        17.330        15.757        18.719        18.537    
    13    43.155        6.6400        4.8133        17.571        18.998        17.882        10.137        9.0388        13.292        12.633        17.350        13.037        13.504        15.534        17.165        19.641        10.273    
                        9.9085        17.271        18.328        18.509        5.9342        5.9861        17.329        15.750        18.675        18.535    
    14    43.167        6.6396        4.6198        17.570        18.938        18.011        10.098        8.9889        13.290        12.627        17.302        13.040        13.503        15.540        17.181        19.639        10.209    
                        9.9073        17.269        18.328        18.711        6.2338        5.9854        17.328        15.744        18.675        18.533    
    15    43.179        6.6392        4.6235        17.569        18.936        18.107        10.095        8.4513        13.288        12.621        17.305        13.043        13.501        15.546        17.177        19.608        10.207    
                        9.9062        17.267        18.327        18.610        6.2341        5.9847        17.327        15.737        18.675        18.534    
    16    43.190        6.6388        4.6273        17.567        18.938        18.109        10.030        8.0305        13.147        12.649        17.039        13.085        13.499        15.552        17.155        19.606        10.204    
                        9.9050        17.267        18.387        18.606        6.2344        5.9840        16.820        15.730        18.675        18.546    
    17    43.202        6.6382        4.6313        17.565        18.922        18.109        10.027        8.0296        13.144        12.642        17.043        13.086        13.497        15.649        17.202        19.604        10.202    
                        9.9039        18.045        18.188        19.339        6.2347        5.9833        17.007        15.724        18.680        18.544    
    18    43.208        6.6380        4.6660        17.564        18.921        18.109        10.026        8.0291        13.143        12.668        17.044        13.087        14.121        15.651        17.200        19.568        10.201    
                        9.9034        18.043        18.188        19.338        6.2349        5.9830        17.007        15.721        18.680        18.543    
     1    43.220        6.6375        4.6364        17.563        18.919        18.109        10.022        8.0274        13.140        12.594        17.203        13.088        13.492        15.567        17.139        19.599        10.197    
                        9.9016        18.144        18.189        18.550        6.2355        5.9815        16.824        15.710        18.675        18.526    
     2    43.232        6.6372        4.6400        17.562        18.926        18.111        10.068        8.4438        12.928        12.585        17.321        13.049        13.489        15.575        17.147        19.608        10.256    
                        9.8998        17.255        18.387        18.364        6.2361        5.9802        17.331        15.698        18.675        18.482    
     3    43.244        6.6369        4.6438        17.561        18.924        18.112        10.083        8.5307        13.273        12.574        17.374        13.052        13.486        15.582        17.122        19.604        10.252    
                        9.7382        17.253        18.325        18.376        6.2367        5.9791        17.329        15.686        18.719        18.469    
     4    43.250        6.6368        4.6458        17.562        18.923        18.021        10.120        8.5287        13.272        12.568        17.535        13.053        13.484        15.586        17.113        19.602        10.249    
                        9.7374        17.420        18.325        18.556        6.2370        5.9786        17.328        15.679        18.718        18.467    
     1    43.872        6.6509        4.9174        17.756        18.849        18.217        10.088        9.2894        13.341        12.125        18.033        14.118        13.506        18.025        17.298        19.469        9.3632    
                        9.7117        18.062        18.351        18.994        5.4332        6.0930        17.385        14.333        18.667        17.800    
     2    44.494        6.6629        6.2950        18.348        18.893        18.770        10.076        9.2958        12.966        12.104        18.413        13.871        12.442        18.067        17.657        19.225        9.3225    
                        10.106        18.040        18.388        19.685        4.8589        5.6487        17.214        14.880        19.115        17.462    
     3    45.116        6.6362        7.3351        18.018        19.031        18.322        10.064        9.8323        14.331        12.145        18.513        14.190        13.308        18.003        18.094        17.337        8.9953    
                        10.006        18.105        18.478        19.753        4.8612        5.0521        16.578        14.966        19.387        18.024    
     4    45.738        7.1850        7.2992        17.503        19.201        18.618        10.257        9.6712        13.467        12.541        18.057        14.584        13.699        17.738        17.730        15.553        7.9767    
                        9.9724        18.057        17.641        19.807        4.9315        5.0020        17.376        15.126        19.500        18.036    
     5    46.250        6.6530        8.1022        17.772        19.319        18.756        10.255        8.9091        12.563        12.738        17.165        14.912        13.883        17.609        17.486        16.379        7.9694    
                        9.6279        18.202        18.045        19.724        4.2469        4.5377        17.945        15.445        19.349        18.118    
     1    46.262        6.6528        8.1027        17.759        19.316        18.799        10.230        8.9063        12.152        13.239        17.007        14.908        13.882        17.601        17.470        17.011        7.9689    
                        9.9913        18.212        18.046        19.715        4.2492        4.5408        17.943        15.439        19.345        18.131    
     2    46.274        6.6526        8.1032        17.760        19.314        18.802        10.228        9.5486        12.159        13.561        17.104        14.682        13.882        17.594        17.411        17.245        7.9685    
                        9.9901        18.210        18.091        19.720        4.2516        4.5440        17.927        15.682        19.341        18.145    
     3    46.286        6.6523        8.1038        17.761        19.311        18.809        10.227        9.5429        12.077        13.506        17.139        14.678        13.881        17.564        17.395        17.874        7.9681    
                        9.9889        18.208        18.141        19.705        4.2541        4.5472        17.939        15.993        19.337        18.144    
     4    46.298        6.6520        8.1045        17.762        19.300        18.807        10.226        9.5371        13.013        13.960        16.858        14.942        14.040        17.534        17.369        17.857        7.9676    
                        9.9922        18.221        18.017        19.699        4.2460        4.5504        17.936        15.984        19.347        18.176    
     5    46.309        6.6518        7.6323        17.763        19.311        18.810        10.225        9.5316        13.535        14.259        16.803        15.158        14.038        17.523        17.162        17.817        7.9672    
                        10.099        18.220        18.019        19.681        4.2486        4.5534        17.931        15.976        19.286        18.252    
     6    46.321        6.6515        7.6341        17.764        19.310        18.827        10.224        9.5262        13.532        15.264        15.869        15.151        14.037        17.513        17.148        17.791        7.9726    
                        10.098        18.219        17.887        19.678        4.2512        4.5563        17.928        15.967        19.282        18.416    
     7    46.333        6.7869        7.6360        17.765        19.314        18.834        10.224        9.5213        12.899        15.245        15.549        15.144        14.036        17.534        17.335        17.787        7.9722    
                        10.109        18.300        17.831        19.665        4.3031        4.5592        17.924        15.980        19.276        18.415    
     8    46.345        6.7864        7.6379        17.766        19.312        18.833        10.223        9.5164        13.448        15.226        15.552        15.138        14.034        17.515        17.319        17.781        7.9717    
                        10.108        18.260        17.835        19.659        4.3057        4.5620        17.920        16.152        19.383        18.403    
     9    46.357        6.7861        7.6398        17.938        19.350        18.842        10.223        9.1090        13.278        15.207        14.775        15.742        14.892        17.494        17.278        17.854        7.9713    
                        10.107        18.347        17.840        19.652        4.3082        4.5648        17.828        16.143        19.424        18.478    
    10    46.369        6.7859        7.6415        17.878        19.415        18.910        10.223        9.1334        12.908        15.638        14.440        15.733        14.784        17.469        17.261        17.775        7.9708    
                        10.121        18.377        17.694        19.639        4.2181        4.5673        17.721        16.136        19.414        18.477    
    11    46.381        6.7856        7.6433        17.879        19.413        18.908        10.222        9.1311        12.717        15.282        14.952        15.724        14.779        17.443        17.257        17.649        7.7882    
                        10.120        18.375        17.700        19.635        4.2207        4.5696        17.676        16.129        19.404        18.469    
    12    46.393        6.7854        7.6451        17.880        19.412        18.908        10.232        9.1288        12.724        15.261        14.878        15.814        14.684        17.428        17.478        17.619        7.7880    
                        10.119        18.426        17.798        19.640        4.2232        4.5719        17.755        16.122        19.394        18.468    
    13    46.405        6.7854        7.6468        17.880        19.381        18.908        10.232        9.1268        12.731        15.222        15.020        16.301        14.605        17.418        16.170        17.596        7.7878    
                        10.118        18.343        17.803        19.623        4.2257        4.5742        17.752        16.115        18.857        18.466    
    14    46.417        6.7854        7.6486        17.881        19.271        18.958        10.232        9.1248        12.741        15.202        15.022        16.289        14.601        17.408        16.180        17.570        7.7875    
                        10.117        18.341        18.387        19.607        4.3700        4.3016        17.626        16.109        18.853        18.465    
    15    46.428        6.7854        7.2715        18.707        19.249        18.994        10.232        9.1230        12.750        15.182        16.373        16.277        14.597        17.383        16.176        17.824        7.7873    
                        10.096        18.339        18.387        19.501        4.3722        4.3044        17.651        15.877        18.849        18.406    
    16    46.440        6.7854        7.2740        18.701        19.249        19.031        10.232        8.7373        12.538        15.162        16.353        16.265        15.151        17.375        15.845        17.499        7.7871    
                        10.095        18.373        18.341        19.445        4.3744        4.3072        17.651        15.874        19.014        18.314    
    17    46.452        6.7854        7.2765        18.392        19.249        19.082        10.244        8.7367        12.548        15.143        16.064        16.255        14.974        17.368        15.843        16.560        7.7868    
                        10.095        18.371        18.342        19.464        4.3285        4.3101        17.652        15.870        18.897        18.313    
    18    46.458        6.7854        7.2777        18.420        19.249        19.082        10.244        8.2441        12.554        15.133        16.054        16.920        14.972        17.316        15.842        16.566        7.7867    
                        10.094        18.436        18.343        19.435        4.3296        4.3115        17.543        15.869        18.580        18.313    
     1    46.470        6.7852        7.2802        18.689        19.250        19.029        10.233        8.7370        12.561        15.122        16.041        16.241        14.969        17.360        15.841        16.564        7.7866    
                        10.094        18.369        18.344        19.462        4.3307        4.3129        17.653        15.867        18.892        18.313    
     2    46.482        6.7849        7.2827        18.682        19.292        18.991        10.234        8.7366        12.569        15.110        15.983        16.233        15.138        17.354        15.841        16.561        7.7865    
                        10.093        18.368        18.344        19.423        4.3319        4.3143        17.654        15.865        18.933        18.313    
     3    46.494        6.7847        7.6605        17.867        19.299        18.960        10.234        9.1595        12.577        15.097        15.429        16.224        14.579        17.367        15.840        16.635        7.7864    
                        10.093        18.366        18.387        19.438        4.3813        4.3157        17.654        15.863        18.999        18.354    
     4    46.500        6.7846        7.6615        17.867        19.408        18.903        10.234        9.1200        12.797        15.091        15.426        16.220        14.578        17.364        16.198        16.769        7.7863    
                        10.093        18.366        18.387        19.437        4.3818        4.3164        17.654        15.861        18.828        18.354    
     1    47.122        6.6891        10.475        18.194        19.340        18.767        10.256        8.0620        12.788        14.517        15.814        16.806        14.897        15.778        16.354        15.848        8.4000    
                        10.107        17.975        18.741        19.005        4.4546        3.9462        17.925        16.092        17.081        18.232    
     2    47.744        6.4724        10.799        18.392        19.441        18.684        10.288        8.0921        13.901        14.373        13.745        16.537        14.773        15.784        15.906        14.780        8.3797    
                        10.136        18.084        19.226        19.086        4.6047        4.0115        18.117        16.223        16.997        18.598    
     3    48.366        6.5011        10.756        18.400        19.398        18.838        12.057        7.6033        14.114        12.901        13.039        14.911        14.699        15.533        16.254        19.065        7.8671    
                        10.129        18.117        19.171        19.055        4.4465        5.0055        18.499        16.669        17.535        18.571    
     4    48.988        6.4573        11.058        18.640        19.271        18.802        11.675        7.2107        15.997        10.406        15.188        14.744        14.594        17.228        16.104        19.066        7.3193    
                        10.073        18.847        19.232        17.963        4.5329        5.9454        18.470        16.966        17.835        18.949    
     5    49.610        6.4765        10.951        18.722        19.159        18.205        11.362        7.8000        14.836        10.178        18.005        14.952        14.807        17.477        17.086        19.518        6.4605    
                        11.981        18.924        19.354        17.604        4.5422        6.2647        18.772        16.577        17.163        19.150    
     6    50.000        6.2733        11.173        18.682        19.234        18.233        12.302        8.0186        13.805        10.031        18.492        14.716        14.813        17.470        17.154        19.779        7.8922    
                        12.338        18.775        19.420        18.351        4.5683        6.9703        18.682        16.333        17.782        19.227    
     7    50.622        6.3085        11.816        17.602        18.115        18.367        12.521        7.8769        13.410        9.8467        19.091        14.765        15.864        18.394        17.763        19.730        7.8812    
                        12.765        18.723        18.974        19.376        5.4081        7.0598        18.656        16.491        18.581        19.099    
     8    51.244        7.2807        12.152        16.891        17.906        17.504        12.868        10.101        12.235        8.2031        19.312        14.589        15.628        19.057        18.695        19.640        9.4325    
                        12.809        17.801        18.776        19.636        5.5135        7.5013        17.879        16.994        18.816        19.097    
     9    51.500        7.2907        12.194        16.620        17.806        16.895        13.363        10.634        13.290        9.1657        19.185        14.297        15.594        19.130        18.792        19.472        8.4541    
                        13.211        17.804        18.755        19.708        6.0093        7.5189        17.565        16.168        19.243        18.622    
     1    51.512        7.2920        12.282        16.588        17.920        16.905        13.357        10.632        13.290        9.1731        19.181        14.306        15.602        19.074        18.789        19.546        8.4536    
                        13.208        17.804        18.705        19.707        6.0104        7.5205        17.567        16.166        19.072        18.622    
     2    51.524        6.9923        12.279        16.545        17.670        17.122        13.352        10.630        13.290        9.1800        19.126        14.315        15.599        19.071        18.833        19.492        8.4530    
                        13.648        17.804        18.706        19.685        6.0115        7.5221        17.569        16.164        18.992        18.622    
     3    51.536        6.9942        12.277        16.481        17.787        17.124        12.724        10.627        12.241        9.2455        19.171        14.324        15.597        19.068        18.830        19.503        8.4524    
                        12.773        17.804        18.706        19.673        6.0126        7.5237        17.571        16.162        18.929        18.621    
     4    51.548        6.9960        12.275        16.500        17.806        17.657        12.827        10.625        12.246        8.5647        19.180        14.496        15.595        19.065        18.725        19.545        9.4209    
                        12.770        17.804        18.706        19.672        5.5327        7.5253        17.662        16.478        18.877        18.621    
     5    51.560        6.8200        12.272        16.529        18.001        17.658        12.824        10.623        12.250        8.5733        19.001        14.504        15.592        19.061        18.529        19.493        9.4197    
                        12.767        17.802        18.657        19.673        5.5343        7.5268        17.663        16.475        18.876        18.668    
     6    51.571        6.8221        12.190        16.495        18.102        17.659        12.820        10.079        12.255        8.2793        18.966        14.512        15.634        18.963        18.526        19.486        9.4184    
                        12.764        17.802        18.658        19.641        5.5359        7.5283        17.779        16.471        18.837        18.668    
     7    51.583        7.6228        12.023        16.441        18.099        17.798        12.816        10.078        12.257        8.2895        18.961        14.520        15.632        18.933        18.522        19.484        9.4172    
                        12.451        17.798        18.659        19.611        5.5375        7.5299        17.891        16.954        18.913        18.667    
     8    51.595        7.6236        12.021        16.397        18.140        17.685        12.812        9.9785        11.843        8.9277        18.979        14.318        15.629        18.930        18.518        19.475        9.4159    
                        12.448        17.797        18.682        19.592        5.5391        7.5314        17.893        17.448        18.877        18.666    
     9    51.607        7.6244        12.019        16.378        18.168        18.058        12.809        9.5447        11.848        8.9302        18.891        14.324        15.625        18.927        18.513        19.458        8.2456    
                        12.445        17.841        18.682        19.577        5.5407        7.5329        17.893        17.442        18.782        18.666    
    10    51.619        7.6252        12.028        16.401        18.207        18.026        12.805        9.5450        12.578        8.9327        18.776        14.372        15.654        18.923        18.347        19.449        8.2454    
                        12.442        17.841        18.689        19.576        5.5423        7.5344        17.893        17.435        18.752        18.665    
    11    51.631        7.6260        12.025        16.369        18.215        18.087        12.801        9.5447        12.580        8.8497        18.552        14.377        15.609        18.920        18.844        19.434        8.2451    
                        12.439        17.845        18.697        19.577        5.5440        7.5360        17.893        17.429        18.662        18.514    
    12    51.643        7.2459        12.023        16.334        18.236        18.079        12.797        9.2072        12.582        8.0459        18.547        14.544        15.605        18.915        18.783        19.397        8.2447    
                        12.436        17.845        18.697        19.598        5.5456        7.5375        17.893        17.422        18.661        18.514    
    13    51.655        7.2473        12.020        16.341        18.250        17.406        12.794        9.2076        12.583        8.5875        18.589        14.224        15.666        18.910        18.360        19.392        8.2443    
                        12.433        17.845        18.698        19.597        5.5473        7.5389        18.670        17.416        18.660        18.861    
    14    51.667        7.2487        12.018        16.331        18.312        17.341        12.790        9.2080        12.585        7.9860        18.580        14.229        15.661        18.978        18.355        19.413        8.2439    
                        12.430        17.901        18.704        19.589        5.5489        7.5405        18.750        17.409        18.546        18.860    
    15    51.679        7.2502        12.015        16.338        18.144        17.220        12.049        9.2083        13.018        7.9903        18.503        14.233        15.666        18.973        18.104        19.438        8.2435    
                        12.427        17.911        18.704        19.609        5.5505        7.5422        18.746        17.402        18.545        18.858    
    16    51.690        7.2516        12.012        16.344        18.156        17.164        11.797        8.6758        13.018        8.5331        18.540        14.236        15.662        18.967        18.101        19.432        8.2431    
                        12.424        17.910        18.705        19.608        5.5520        7.5439        18.742        17.396        18.544        18.835    
    17    51.702        7.2530        12.009        16.331        18.156        17.119        11.795        8.2762        13.123        7.2058        18.547        14.239        15.658        18.996        18.098        19.425        8.2427    
                        12.421        17.929        18.705        19.604        5.5535        7.5456        18.708        17.389        18.541        18.834    
    18    51.708        7.2537        12.008        16.334        18.140        17.017        12.409        8.2772        13.122        7.2095        18.543        14.240        15.656        18.993        18.096        19.384        8.2425    
                        12.419        17.929        18.705        19.601        5.5541        7.5464        18.706        17.386        18.608        18.833    
     1    51.720        7.2550        12.006        16.354        18.156        17.129        11.792        8.6795        13.121        8.5478        18.517        14.244        15.649        18.947        18.090        19.407        8.2417    
                        12.414        17.784        18.706        19.602        5.5573        7.5496        18.732        17.374        18.539        18.851    
     2    51.732        7.2563        12.003        16.361        18.156        17.134        12.041        9.2085        12.584        8.0255        18.528        14.248        15.635        18.937        18.189        19.364        8.2410    
                        12.409        17.727        18.706        19.634        5.5605        7.5527        18.726        17.363        18.538        18.503    
     3    51.744        7.2575        12.001        16.366        18.315        17.312        12.039        9.2090        12.586        8.0324        18.518        14.252        15.628        18.926        18.629        19.319        8.2404    
                        12.404        17.679        18.707        19.631        5.5636        7.5557        17.866        17.352        18.649        18.470    
     4    51.750        7.2582        12.000        16.368        18.334        17.314        12.775        9.2092        12.587        7.6974        18.464        14.255        15.624        18.920        18.623        19.313        8.2401    
                        12.402        17.685        18.708        19.603        5.5652        7.5574        17.867        17.346        18.648        18.470    
     1    52.372        7.6762        11.750        16.347        18.395        17.660        12.015        10.562        13.340        9.2635        18.560        14.083        14.830        18.893        18.284        18.661        7.3214    
                        12.688        17.477        18.636        19.743        6.3872        7.3864        17.572        15.604        19.378        18.107    
     2    52.994        8.3761        12.448        17.084        18.254        17.624        12.594        10.180        14.677        8.0576        18.529        13.019        14.840        18.735        18.278        16.853        7.3353    
                        13.531        17.272        18.766        19.723        7.2127        8.1004        17.759        15.101        19.289        17.512    
     3    53.616        9.4048        12.487        17.923        18.492        18.132        12.349        10.747        12.229        9.5745        17.064        15.385        14.894        18.489        18.199        14.536        7.3468    
                        13.271        17.126        18.884        19.608        7.7670        8.8862        18.413        15.511        19.223        17.543    
     4    54.238        9.4060        12.291        17.751        18.634        17.934        12.124        10.870        12.722        12.071        14.852        15.928        14.797        18.116        17.563        12.328        7.3568    
                        13.222        17.089        18.990        19.361        8.7436        9.9573        18.441        15.961        18.934        17.550    
     5    54.860        10.125        12.279        17.895        18.683        17.339        11.440        10.873        12.372        15.265        11.112        16.398        14.224        16.708        16.312        15.995        8.5007    
                        13.154        17.697        19.109        18.707        9.5186        10.760        17.664        15.166        18.697        17.238    
     6    55.482        11.185        12.440        18.363        18.234        16.595        11.132        10.832        11.111        14.395        9.7614        16.378        15.101        16.283        15.329        17.666        8.4914    
                        13.525        17.897        19.290        17.797        9.4326        11.661        18.249        15.216        16.830        17.568    
     7    56.104        11.413        12.541        18.539        18.095        15.440        11.971        10.837        13.781        13.333        9.6900        16.440        15.055        16.140        13.376        16.730        8.0995    
                        13.442        18.126        19.394        16.684        11.365        12.271        18.611        14.816        16.020        18.455    
     8    56.725        12.305        12.406        18.144        17.800        16.880        11.817        11.022        12.639        12.860        8.9504        16.011        16.365        14.898        11.244        15.412        8.7791    
                        13.666        18.190        19.592        16.315        10.267        12.425        19.188        16.434        12.513        18.414    
     9    57.347        12.290        11.919        17.655        18.267        12.174        12.774        10.208        13.204        8.2591        9.9266        15.783        16.387        12.595        10.549        9.5761        8.7769    
                        13.855        18.561        19.492        18.218        10.208        13.539        19.018        16.740        13.365        18.818    
    10    57.969        12.713        12.113        16.969        17.625        13.808        12.729        9.5225        13.002        7.2928        7.8386        15.770        16.227        10.358        12.504        4.2778        9.6682    
                        14.161        18.716        19.498        18.490        10.260        13.648        19.008        16.393        16.296        18.927    
    11    58.591        12.252        12.529        17.244        17.452        14.024        11.986        8.8439        13.336        5.0184        4.7214        15.700        16.408        11.748        14.678        2.3827        11.427    
                        14.283        18.916        19.387        18.255        10.262        11.612        18.814        15.797        16.552        18.525    
    12    58.750        12.150        12.955        16.049        17.270        14.495        11.982        8.3116        13.968        4.9597        4.1937        15.664        16.381        12.099        13.873        1.7482        11.415    
                        14.274        19.164        19.413        17.893        10.264        11.613        18.815        15.395        16.462        18.529    
     1    58.762        12.148        12.954        16.284        17.262        14.508        11.980        9.0280        13.917        4.7856        3.9680        15.640        16.373        11.591        13.831        1.7004        11.412    
                        14.573        19.187        19.358        17.887        10.265        11.532        18.814        15.324        16.445        18.528    
     2    58.774        12.146        12.954        16.280        17.859        13.751        11.977        9.0316        13.876        5.2629        3.5233        15.616        16.365        11.591        14.083        1.4634        11.409    
                        14.569        19.239        19.355        18.170        10.265        11.532        18.799        15.320        16.433        18.502    
     3    58.786        11.937        13.249        16.275        17.941        14.058        11.976        9.0352        14.052        5.2784        3.5497        15.592        16.357        11.707        14.043        1.3827        11.407    
                        14.566        19.235        19.351        18.003        10.265        11.533        18.794        15.318        16.488        18.501    
     4    58.798        11.935        13.248        16.252        17.949        13.921        12.349        9.0385        14.297        5.1524        3.4404        15.394        16.349        11.869        14.270        1.3278        11.404    
                        14.566        19.216        19.348        18.507        10.266        11.534        18.790        15.315        16.247        18.455    
     5    58.809        11.933        13.247        16.495        17.974        13.938        12.346        8.8744        14.280        5.3204        3.3166        13.017        16.341        11.210        12.619        1.3812        11.401    
                        14.562        19.192        19.344        17.808        10.267        11.535        18.776        15.369        16.222        18.402    
     6    58.821        11.932        13.246        17.428        18.026        13.956        12.343        8.8783        14.264        5.3323        3.6549        13.011        16.072        11.420        12.589        1.3121        11.398    
                        14.559        19.189        19.288        17.576        10.268        11.536        18.772        15.366        16.491        18.286    
     7    58.833        11.930        13.246        17.418        18.025        13.632        12.340        8.8822        14.245        5.9963        3.5594        13.009        16.065        11.718        11.186        1.2319        11.395    
                        14.555        19.185        19.260        17.668        10.269        11.536        18.767        15.362        16.769        18.286    
     8    58.845        11.929        13.245        17.409        18.024        13.408        13.120        9.3746        14.224        5.4557        3.0777        14.197        16.058        12.797        10.361        1.1440        11.392    
                        14.552        19.182        19.256        17.643        10.270        11.537        18.753        15.357        17.081        18.285    
     9    58.857        11.927        13.244        17.408        17.969        13.434        12.647        9.3771        13.840        6.0951        3.0303        14.183        16.050        13.353        10.350        1.0498        11.389    
                        14.548        19.178        19.222        17.434        10.271        12.228        18.738        15.658        17.048        18.285    
    10    58.869        12.666        13.243        17.399        17.885        13.318        12.600        9.3796        13.822        6.0999        2.8609        14.516        16.043        13.493        10.190        1.0741        11.387    
                        14.545        19.144        19.218        17.154        10.272        12.227        18.759        15.477        17.149        18.283    
    11    58.881        12.664        13.243        17.394        17.820        13.344        12.597        9.3817        13.804        6.1047        2.7024        14.498        16.036        13.465        12.128       0.90581        11.384    
                        14.541        19.141        19.139        17.129        10.273        12.227        18.754        15.082        17.294        18.197    
    12    58.893        12.662        13.242        17.387        17.822        14.096        12.595        9.2378        14.240        6.1090        2.6155        14.481        16.028        14.022        12.097       0.80410        11.620    
                        14.537        19.130        19.135        17.105        10.274        12.226        18.749        15.077        17.252        18.000    
    13    58.905        12.659        13.241        17.380        17.889        14.293        12.592        9.2405        14.218        6.0944        2.6315        14.463        16.021        14.690        10.643       0.84368        11.617    
                        14.077        19.127        19.025        16.750        10.276        12.226        18.743        15.072        17.278        17.967    
    14    58.917        12.657        13.241        17.480        17.823        14.985        12.590        9.2432        13.317        6.0991        3.5265        14.100        16.014        14.517        10.616       0.86456        11.615    
                        14.074        19.119        18.956        16.724        10.277        12.225        18.736        15.090        16.694        18.368    
    15    58.928        12.655        13.240        17.657        18.023        16.019        13.141        9.2463        13.306        6.5014        3.5387        14.088        16.006        14.344        8.5096       0.88688        11.612    
                        14.072        19.117        18.880        16.697        10.278        12.225        18.806        14.851        14.399        18.364    
    16    58.940        12.653        13.240        17.650        18.203        16.022        13.137        9.2494        13.004        5.9022        3.3339        14.075        15.974        14.300        7.9294        1.0313        11.609    
                        14.001        19.114        18.824        16.674        10.280        12.225        18.806        14.848        14.391        18.359    
    17    58.952        12.651        13.545        17.646        18.166        16.104        13.133        9.4605        12.998        5.9087        4.1061        13.219        16.369        14.255        8.4972        1.2057        11.606    
                        13.999        19.111        18.392        16.335        10.281        12.225        17.719        14.795        12.089        18.354    
    18    58.958        12.650        13.545        17.728        18.475        16.085        13.131        9.4618        12.099        6.0839        4.1015        13.214        16.364        14.233        8.4922        1.2830        11.604    
                        13.998        19.110        18.392        16.326        10.282        12.225        17.719        14.792        13.577        18.352    
     1    58.970        12.647        13.544        17.617        18.162        16.106        13.128        9.0747        12.995        5.9147        4.0951        13.205        15.957        14.204        7.9216        1.2902        11.603    
                        13.996        19.108        18.393        16.315        10.283        12.225        17.720        14.790        12.099        18.350    
     2    58.982        12.644        13.238        17.638        18.017        16.028        13.125        9.2562        12.989        5.9188        3.3145        13.200        15.953        14.175        7.9216        1.2142        11.601    
                        14.040        19.107        18.823        16.614        10.284        12.225        18.803        14.788        14.414        18.348    
     3    58.994        12.642        13.238        17.461        17.887        16.032        13.122        9.2585        13.276        5.5559        3.3166        14.039        15.972        14.148        8.4882        1.2050        11.600    
                        14.062        19.105        18.820        16.598        10.285        12.225        18.792        14.835        14.408        18.346    
     4    59.000        12.640        13.238        17.455        17.887        15.009        13.120        9.2596        13.272        5.5589        3.5229        14.035        15.969        14.277        8.4865        1.1998        11.599    
                        14.061        19.107        18.921        16.589        10.285        12.225        18.790        14.834        14.404        18.345    
     1    59.622        12.592        13.231        17.313        18.137        17.017        13.089        9.5331        13.096        4.9801        2.8079        13.148        16.102        13.650        6.5463        5.5908        11.615    
                        14.014        18.994        18.565        9.0846        10.052        12.534        16.438        14.170        8.7068        17.461    
     2    60.244        12.262        13.613        16.364        17.592        17.057        13.740        9.7531        10.980        4.5093        2.7652        13.149        15.824        11.090        5.2616        13.736        11.984    
                        13.938        18.815        18.069        8.3659        10.375        12.281        16.675        13.116        6.4987        16.165    
     3    60.866        12.631        12.674        15.830        17.542        16.443        13.143        10.064        8.4086        4.8790        6.8618        13.106        15.786        6.0590        6.5491        18.044        11.981    
                        13.907        18.746        17.599        5.0499        11.046        12.073        16.634        12.469        3.3233        14.784    
     4    61.488        12.529        13.149        14.725        18.273        15.907        13.190        11.358        9.1771        4.0413        14.643        13.865        15.213        6.3152        9.1674        19.063        11.976    
                        13.897        17.463        17.348        3.6566        11.428        12.641        17.111        10.231        3.3296        14.256    
     5    62.000        12.100        14.223        14.713        18.032        11.369        13.308        11.668        8.7431        5.4841        16.300        12.821        14.337        8.0414        11.701        19.501        12.575    
                        14.372        17.142        17.272        10.999        11.431        13.137        16.262        10.997        3.3097        14.828    
     1    62.012        12.099        13.911        14.720        17.601        12.461        13.305        11.663        8.7451        5.0364        16.272        12.819        15.015        8.0578        12.150        19.266        12.574    
                        14.372        17.143        17.269        10.992        11.431        13.136        16.261        11.004        3.5566        14.831    
     2    62.024        11.691        13.910        14.726        17.474        10.983        13.302        11.658        9.6125        4.8805        16.071        14.999        15.010        8.0742        11.686        19.236        12.573    
                        14.370        17.144        17.265        10.984        11.431        13.136        16.803        11.009        3.5845        14.833    
     3    62.036        11.690        13.908        15.072        17.502        8.9741        13.299        11.653        9.0441        4.6465        16.187        14.982        15.004        8.0906        11.686        19.232        12.572    
                        14.369        17.145        17.262        10.351        11.431        13.136        16.898        11.014        3.6127        14.835    
     4    62.048        11.690        13.906        15.075        17.421        7.8658        13.296        11.648        9.0468        4.3607        16.149        13.181        14.998        8.1053        11.686        19.272        12.571    
                        14.367        16.688        17.264        10.345        11.431        12.623        16.594        11.019        3.6532        14.838    
     5    62.060        11.689        13.905        12.900        17.499        9.3099        13.293        11.286        9.0479        4.3604        16.107        13.172        14.033        6.5508        11.741        19.267        12.570    
                        14.365        16.691        17.253        9.0811        11.432        12.624        16.592        11.024        3.6783        14.840    
     6    62.071        11.688        13.903        14.259        17.444        9.3245        13.290        11.281        9.0489        4.3608        15.486        12.419        14.030        6.5719        11.732        19.262        12.568    
                        14.364        16.694        17.261        9.2701        11.432        12.624        16.590        11.031        3.7028        14.842    
     7    62.083        11.688        13.901        14.268        17.433        8.6456        13.286        11.276        9.0505        4.3618        15.447        11.206        14.028        6.5923        11.721        19.256        12.567    
                        13.939        16.974        17.331        9.1564        11.432        12.625        16.588        10.648        3.7092        14.844    
     8    62.095        11.687        13.900        14.539        16.222        8.1677        13.282        11.272        9.0527        4.1138        15.189        11.204        14.025        6.6074        11.292        19.285        12.566    
                        13.938        16.975        17.436        9.1542        11.432        12.625        16.586        10.657        3.7624        14.846    
     9    62.107        11.687        13.898        14.545        15.768        9.1990        13.138        11.267        9.0557        4.5358        14.896        11.201        14.023        6.6225        10.785        19.251        12.631    
                        13.937        16.977        17.432        8.4478        11.432        12.638        16.583        10.453        3.7814        14.849    
    10    62.119        11.686        13.897        14.894        15.772        9.0232        13.134        11.262        9.0588        4.1346        14.943        11.198        14.021        6.9486        10.763        18.968        12.630    
                        13.936        16.978        17.427        7.3765        11.432        12.638        16.435        10.462        3.7981        14.851    
    11    62.131        11.685        13.896        14.898        15.631        9.0356        13.130        11.257        9.0619        4.1373        14.905        11.197        14.018        6.9602        10.760        18.724        12.629    
                        13.900        16.980        17.422        6.8075        11.432        12.639        16.433        11.097        3.8155        15.316    
    12    62.143        11.018        13.894        14.823        15.254        9.0407        13.126        10.309        7.9080        4.1401        14.376        11.195        14.016        6.9724        10.124        18.658        12.628    
                        13.899        16.981        17.418        6.8198        11.432        12.639        16.639        11.104        3.8341        15.316    
    13    62.155        10.743        12.701        14.941        15.262        9.6251        13.122        10.306        7.9176        4.1429        14.296        11.194        14.014        6.9839        9.1353        18.485        12.626    
                        14.396        16.982        17.436        6.0293        11.432        12.640        16.636        11.195        3.8670        15.317    
    14    62.167        10.743        12.701        15.192        15.417        9.5010        13.118        10.303        7.9260        3.9715        15.584        11.193        14.011        6.9954        9.1396        18.375        12.625    
                        14.394        16.984        17.432        6.0475        11.432        12.640        16.807        11.201        3.8542        15.317    
    15    62.179        10.744        12.702        15.357        15.137        9.5042        13.040        9.8640        7.9345        3.9756        15.536        11.193        13.933        6.4882        8.5517        18.127        12.624    
                        14.393        16.984        17.428        6.5239        11.432        12.641        16.804        10.440        3.8096        15.318    
    16    62.190        10.744        12.703        15.356        15.281        9.5076        13.036        9.8622        7.9430        3.6528        15.488        11.192        13.931        6.5006        8.1843        18.127        12.623    
                        14.391        17.186        17.453        6.6912        11.433        12.642        16.801        11.485        3.8234        15.318    
    17    62.202        10.743        12.703        15.356        15.283        10.291        13.032        9.8606        7.9513        3.6584        15.440        11.190        14.196        6.5141        8.1927        18.127        12.621    
                        14.387        16.874        17.474        5.8338        11.433        12.642        16.798        10.135        3.8038        15.318    
    18    62.208        10.743        12.704        15.356        15.423        10.287        13.031        9.8598        6.9541        3.5090        15.417        11.189        14.194        6.5205        8.1960        17.903        12.621    
                        14.386        16.874        17.484        5.3833        11.433        12.643        16.797        10.139        3.8093        15.317    
     1    62.220        10.744        12.705        15.356        15.283        9.4973        13.025        9.8572        7.9689        3.6693        15.347        11.189        13.924        6.5384        8.2066        18.125        12.618    
                        14.386        16.569        17.442        6.7318        11.433        12.644        16.791        10.464        3.8599        15.317    
     2    62.232        10.744        12.705        15.356        15.286        9.4986        13.093        9.8546        7.9811        3.9984        15.281        11.189        13.920        6.5574        8.5964        18.126        12.616    
                        14.383        16.982        17.436        6.7528        11.433        12.645        16.786        10.479        3.9200        15.318    
     3    62.244        10.744        12.705        15.355        15.555        9.5002        13.088        9.8521        7.9924        4.1777        15.216        11.188        13.991        7.0947        10.086        18.489        12.614    
                        14.381        16.981        17.371        6.7503        11.433        12.646        16.608        11.172        3.9760        14.860    
     4    62.250        10.745        12.706        15.189        15.468        9.4998        13.085        10.289        7.9984        4.1801        15.182        11.188        13.988        7.1032        10.084        18.554        12.612    
                        14.379        16.982        17.368        6.2838        11.433        12.646        16.399        11.177        3.9906        14.863    
     1    62.872        10.476        13.340        15.328        15.458        8.1200        12.018        11.711        8.8114        4.7156        16.316        11.946        13.942        7.9875        11.699        18.809        12.528    
                        14.251        16.139        17.213        13.868        11.534        13.023        16.307        11.250        7.0927        15.285    
     2    63.494        10.401        13.341        15.063        12.844        6.4941        11.835        9.8497        8.9935        5.2256        16.291        9.1925        13.567        11.301        10.958        18.041        12.496    
                        14.258        15.469        16.862        16.505        12.363        12.967        15.795        13.207        13.359        15.110    
     3    64.116        10.809        13.722        11.912        10.157        8.3877        12.199        10.219        10.162        5.5928        16.664        6.4038        13.438        12.678        11.261        16.572        12.458    
                        14.114        15.036        16.379        18.038        11.801        12.482        15.354        12.933        15.048        15.368    
     4    64.738        10.817        14.556        9.5150        8.5832        13.721        12.183        9.2590        7.4611        5.6381        16.743        7.7643        13.638        14.753        13.221        15.747        12.747    
                        14.227        16.080        15.899        18.560        13.666        14.043        14.046        9.5548        15.919        9.9268    
     5    65.360        11.448        14.307        6.9932        12.296        15.099        11.748        9.2534        5.8288        7.3041        15.361        7.8265        13.573        15.566        13.583        15.756        12.599    
                        14.034        15.409        14.761        18.832        13.378        14.819        12.218        7.7231        17.584        8.0810    
     6    65.982        10.531        14.130        6.2438        17.486        13.913        11.750        8.5949        5.6244        9.3235        13.298        8.2254        12.808        15.328        14.143        16.650        12.629    
                        13.894        15.134        12.556        18.563        12.026        13.635        9.6482        7.5420        17.608        7.5239    
     7    66.604        10.470        13.382        8.0021        15.090        15.109        12.251        8.6909        5.1485        7.2887        15.138        9.1972        12.210        15.208        13.601        17.049        12.637    
                        13.860        14.903        10.205        18.329        12.210        14.132        8.4067        6.9630        17.272        5.5488    
     8    67.225        10.707        12.893        10.863        15.261        16.410        11.375        7.9183        6.8100        6.1150        14.299        10.010        11.464        13.738        13.131        14.557        12.940    
                        13.891        14.072        13.484        18.687        12.349        13.856        8.3001        7.1896        16.171        6.0042    
     9    67.250        10.708        12.893        10.864        15.268        16.406        11.376        7.9192        6.8147        5.8054        14.288        10.009        11.462        13.738        13.129        14.205        12.939    
                        13.891        14.069        13.483        18.684        12.349        13.856        7.8032        7.1957        16.002        6.0105    
     1    67.257        10.710        12.894        10.867        15.577        16.394        11.755        7.9230        6.0177        6.1422        14.711        9.2173        12.135        14.055        13.764        15.705        12.936    
                        13.891        14.061        13.478        18.655        12.350        13.855        8.3535        7.1872        16.195        6.0250    
     2    67.264        10.713        12.895        10.866        15.713        16.383        11.757        7.9266        5.8402        6.2427        14.846        9.2204        12.132        14.047        13.911        15.706        12.932    
                        13.892        14.050        12.951        18.632        12.351        13.855        8.6666        7.0842        16.273        6.0516    
     3    67.271        10.715        12.895        10.195        15.578        16.273        11.760        7.9313        4.7243        6.2608        14.760        8.5255        12.418        14.773        13.835        15.855        12.794    
                        13.893        14.860        12.130        18.620        12.352        13.855        8.9210        7.2428        17.286        6.1079    
     4    67.279        10.717        12.427        10.202        15.453        16.087        12.273        8.7170        4.8389        6.9354        14.651        8.5334        12.053        14.752        13.674        16.270        12.791    
                        13.893        14.876        11.999        18.607        12.354        13.855        8.7915        7.2577        17.155        6.1187    
     5    67.286        10.719        11.897        9.9162        15.406        15.979        12.272        8.7172        5.2475        7.0668        15.116        7.3916        12.427        15.881        13.660        16.232        12.757    
                        13.893        14.857        11.712        18.590        12.356        13.961        8.6328        7.1373        17.226        6.1838    
     6    67.293        10.721        11.900        9.9303        15.632        15.894        12.271        8.7174        5.2716        7.1920        14.228        7.4070        12.425        15.528        13.352        16.200        12.755    
                        13.893        14.519        11.216        18.398        12.226        14.121        8.6624        7.0853        15.730        6.1958    
     7    67.300        10.723        11.904        10.030        15.789        15.825        12.270        8.7182        5.2013        7.2007        13.199        7.4223        12.878        15.500        14.127        16.211        12.752    
                        13.893        14.633        10.359        18.265        12.228        14.120        8.8564        7.4284        15.785        6.1840    
     8    67.306        10.725        11.237        10.038        15.799        15.710        12.269        9.2077        5.2210        7.2073        13.159        6.7514        12.875        15.215        14.107        16.194        12.637    
                        13.893        14.510        9.3970        18.224        12.229        14.323        8.9454        7.7405        16.317        6.2545    
     1    67.312        10.726        11.239        10.047        15.773        15.798        12.267        9.2068        5.3099        7.2116        13.157        6.7686        12.872        15.187        14.221        16.547        12.636    
                        13.901        14.501        9.4219        18.219        12.229        14.322        8.9541        7.7447        15.986        6.3492    
     2    67.319        10.727        11.910        10.056        16.074        15.732        12.265        9.2057        5.3226        7.2160        12.745        6.7861        12.868        15.265        13.649        16.772        12.635    
                        13.901        14.492        9.8950        18.213        12.229        14.322        8.9628        7.7490        15.996        6.3515    
     3    67.326        10.728        11.912        10.137        16.133        15.670        12.263        9.2041        5.4676        7.2181        13.034        6.8034        12.865        15.238        13.643        17.089        12.635    
                        13.901        14.588        9.9174        18.208        12.229        14.321        8.9704        7.9554        16.005        6.3539    
     4    67.332        10.729        11.913        10.147        16.150        15.640        12.261        9.2024        5.4767        7.2234        13.029        6.8197        13.052        15.323        13.673        17.425        12.634    
                        13.862        14.578        9.9397        18.255        12.229        14.320        10.148        7.9581        16.109        6.4208    
     5    67.339        10.730        11.914        10.156        16.167        15.880        11.759        9.3794        5.6294        7.2297        13.238        6.8338        13.049        15.360        13.608        17.365        12.634    
                        13.862        14.568        9.9626        18.250        10.969        14.319        10.281        8.1031        16.118        6.4866    
     6    67.346        10.730        11.916        10.174        16.185        15.890        11.758        8.6003        7.1257        7.2333        12.644        6.8472        12.965        15.669        13.602        17.344        12.633    
                        13.862        14.557        9.9859        18.172        10.970        14.319        10.282        8.1054        16.071        6.4867    
     7    67.352        10.731        11.918        10.180        16.203        15.893        11.757        8.6003        7.1240        7.2367        12.642        6.8598        13.176        15.655        13.823        17.296        12.632    
                        13.862        14.464        10.008        18.161        10.972        13.917        10.267        8.1067        16.316        6.5415    
     8    67.359        10.732        11.919        10.191        16.380        16.648        11.756        8.2743        7.8583        7.4980        12.836        5.6949        13.171        15.640        13.815        17.745        12.632    
                        13.862        14.455        10.585        18.157        10.973        13.619        10.268        8.1086        17.143        6.5421    
     9    67.366        10.733        11.921        10.236        17.420        16.859        11.754        8.2747        7.8509        7.5419        12.598        5.7134        13.167        15.606        13.932        17.727        12.631    
                        13.862        14.343        10.605        18.129        10.974        13.619        10.268        7.5764        17.136        6.5428    
    10    67.372        10.733        11.922        10.293        17.425        17.094        11.752        8.2752        7.8437        7.5692        12.598        5.7318        13.162        15.547        14.467        17.678        12.630    
                        13.862        14.411        9.9308        18.097        10.976        13.620        10.269        7.5820        17.159        6.5436    
    11    67.379        10.734        11.924        10.587        17.431        17.086        11.109        8.2756        7.8366        7.6413        11.971        5.7501        13.158        15.534        14.462        17.662        12.701    
                        13.862        14.403        10.513        18.096        10.977        13.620        10.270        7.4229        17.153        6.5442    
    12    67.386        10.734        11.387        10.887        17.647        17.077        11.109        8.2759        7.8290        7.6397        11.977        5.7687        13.405        15.341        14.853        17.558        12.701    
                        13.863        14.119        10.533        18.093        10.767        13.620        10.271        7.4297        17.182        6.5449    
    13    67.389        10.735        11.388        10.925        17.753        15.460        11.109        8.2760        7.8256        7.6893        11.980        5.7770        13.402        15.335        14.956        17.505        12.700    
                        13.863        14.115        11.290        18.091        10.768        13.620        10.272        7.4329        17.179        6.5457    
     1    67.399        10.738        12.402        10.962        17.418        15.472        11.108        8.2775        7.8018        7.5132        12.600        6.1479        13.146        15.473        14.233        17.359        12.695    
                        13.863        14.390        10.743        18.089        10.988        14.315        10.277        7.8101        17.118        6.4984    
     2    67.409        10.986        12.405        11.018        17.444        15.181        11.744        8.3077        7.7786        7.2383        12.217        5.5571        12.401        14.640        13.466        17.224        12.731    
                        13.891        14.224        10.397        18.071        12.254        14.111        9.0533        7.6656        16.245        6.3735    
     3    67.419        10.989        12.404        11.651        17.926        14.366        11.743        9.1975        6.1055        7.2402        12.655        7.1012        11.649        14.156        13.688        16.742        12.817    
                        13.889        14.281        10.090        18.161        12.385        14.010        9.0430        7.2582        16.190        6.3348    
     4    67.430        11.285        12.406        11.904        17.921        15.550        12.263        8.7054        5.5442        7.0389        12.572        6.1845        11.758        14.722        13.535        16.139        12.888    
                        13.888        14.677        11.572        18.273        12.387        14.008        9.1198        7.3366        16.018        6.3168    
     5    67.434        11.285        12.407        11.281        18.043        15.553        12.261        8.7034        5.5618        7.0384        12.565        6.5717        11.754        14.003        13.506        16.118        12.885    
                        13.888        14.650        12.218        18.264        12.387        13.845        9.2959        7.3982        16.027        6.1960    
     1    67.440        11.285        12.407        11.292        17.201        14.831        12.260        8.7022        5.1720        7.0226        12.425        6.5895        10.835        13.989        13.477        15.318        12.966    
                        13.887        14.638        12.226        18.256        12.388        13.845        9.3043        7.4071        16.078        6.2646    
     2    67.447        11.285        12.407        11.940        16.926        14.841        12.258        7.9185        5.1900        7.0238        12.421        6.6081        11.268        13.975        12.981        15.313        12.965    
                        13.887        14.626        12.293        18.311        12.388        13.844        9.0998        7.2951        16.084        6.2745    
     3    67.453        11.285        12.408        11.772        17.000        15.044        12.257        7.9198        5.2080        6.8686        13.162        6.6247        11.186        14.547        13.069        15.259        12.963    
                        13.887        13.952        12.020        18.347        12.388        13.844        8.8198        7.3051        17.444        6.2849    
     4    67.459        11.285        12.408        11.779        17.010        14.095        12.256        7.9212        5.2270        6.8705        12.461        6.6416        11.098        14.624        12.287        16.143        12.962    
                        13.887        13.945        12.899        18.370        12.388        13.844        8.8666        7.2851        17.200        6.2960    
     5    67.466        11.286        12.931        11.746        16.935        14.440        12.255        7.9231        5.1552        6.8733        12.102        6.6585        10.840        14.605        11.480        16.273        12.960    
                        13.886        13.937        13.286        18.395        12.389        13.844        8.8812        7.3364        17.193        6.3072    
     6    67.472        11.286        12.931        12.274        16.944        14.032        12.254        7.9253        5.1756        7.0332        12.104        6.6845        10.840        14.657        11.719        16.445        12.959    
                        13.886        13.930        13.561        18.391        12.389        13.843        8.3984        7.3486        16.537        6.3183    
     7    67.478        11.286        12.930        11.754        17.076        14.052        12.228        7.9276        6.1654        7.0348        12.537        6.7103        10.425        13.925        11.927        16.021        12.957    
                        13.886        13.925        14.145        18.389        12.389        13.843        8.3939        7.3618        16.541        6.3876    
     8    67.485        11.286        12.930        11.759        17.020        14.011        11.704        7.9300        6.1814        7.0382        12.534        7.0529        10.427        13.913        11.270        16.337        12.956    
                        13.886        13.919        14.139        18.406        12.389        13.842        8.4110        7.3750        16.434        6.3963    
     9    67.491        11.286        12.930        12.039        17.047        14.033        11.705        7.9326        6.1990        7.0432        12.265        7.5894        10.157        13.551        11.277        16.651        12.954    
                        13.885        13.913        14.132        18.413        12.389        13.842        8.5273        7.3946        16.269        6.4090    
    10    67.497        11.286        12.930        12.337        16.661        14.055        11.330        7.9351        6.9134        7.6394        12.422        8.5577        10.056        13.067        11.686        16.505        12.883    
                        13.885        14.241        14.347        18.424        12.390        13.722        8.5447        7.4089        16.458        6.4474    
    11    67.503        11.287        12.930        12.340        16.238        15.051        10.909        7.9373        6.9256        7.6379        12.490        8.5750        10.056        13.072        11.689        16.109        12.881    
                        13.885        14.235        14.339        18.475        12.390        13.722        8.5623        7.4236        16.645        6.5623    
    12    67.510        11.287        12.930        12.343        16.260        14.928        11.874        7.9396        6.9378        7.6369        12.518        10.019        9.9703        13.077        11.716        16.158        12.880    
                        14.136        13.297        14.239        18.469        12.390        13.722        9.5456        7.4405        16.715        6.5742    
    13    67.516        11.287        12.930        12.344        16.271        14.943        11.653        7.9419        7.2819        7.7295        12.265        11.402        9.9710        13.654        11.598        16.424        12.941    
                        14.135        13.296        14.062        18.500        12.391        13.429        9.7214        7.4604        16.664        6.5864    
    14    67.517        11.287        12.930        12.344        16.273        14.946        11.654        7.9424        7.2834        7.7291        12.270        11.402        9.9711        13.654        11.615        16.504        12.941    
                        14.134        13.296        14.061        18.500        12.489        13.429        9.7233        7.4631        16.664        6.5887    
     1    68.139        11.969        13.786        13.457        17.439        15.228        11.886        7.8797        6.6485        7.9427        14.736        15.200        9.4575        12.201        10.889        94.308        12.987    
                        14.123        11.137        14.343        18.629        12.627        13.311        10.082        8.6965        17.745        8.2651    
     2    68.761        12.152        13.943        16.099        18.200        17.102        12.746        7.8983        8.9186        6.7964        41.264        15.236        9.6258        12.769        13.359        91.344        13.016    
                        14.040        10.018        14.622        20.835        12.804        13.524        12.824        10.966        18.120        13.005    
     3    69.383        12.029        13.896        15.973        18.056        17.340        12.775        8.7096        8.7383        5.4719        74.225        15.921        9.6694        28.777        51.210        26.924        13.233    
                        14.503        11.604        15.539        24.148        12.680        13.648        12.557        11.790        20.430        13.696    
